TITLE	
DATA TYPE	INFRARED SPECTRUM
ORIGIN	JASCO
OWNER	
DATE	25/10/20
TIME	15:31:38
SPECTROMETER/DATA SYSTEM	
LOCALE	1033
RESOLUTION	
DELTAX	0.964233
XUNITS	1/CM
YUNITS	TRANSMITTANCE
FIRSTX	  649.8934
LASTX	 4000.6047
NPOINTS	    3476
FIRSTY	    90.93753
MAXY	   100.05249
MINY	    13.18448
XYDATA
649.8934	90.9375
650.8576	90.9094
651.8218	90.968
652.7861	90.9917
653.7503	90.8588
654.7145	90.5185
655.6788	90.0214
656.6430	89.4818
657.6072	88.9962
658.5715	88.5835
659.5357	88.1892
660.4999	87.7418
661.4642	87.2084
662.4284	86.5986
663.3926	85.9245
664.3569	85.1698
665.3211	84.3003
666.2853	83.2988
667.2496	82.171
668.2138	80.8611
669.1780	79.1484
670.1423	76.7465
671.1065	73.5497
672.0707	69.7839
673.0350	66.0449
673.9992	63.2339
674.9634	62.269
675.9277	63.5796
676.8919	66.7251
677.8561	70.529
678.8204	73.6449
679.7846	75.1016
680.7488	74.5389
681.7131	72.1517
682.6773	68.4887
683.6415	64.2566
684.6058	60.2064
685.5700	57.0666
686.5342	55.4305
687.4985	55.5786
688.4627	57.3373
689.4269	60.1066
690.3912	63.0738
691.3554	65.4962
692.3196	66.9006
693.2839	67.1251
694.2481	66.2275
695.2123	64.3428
696.1766	61.5709
697.1408	57.9362
698.1050	53.4193
699.0693	48.0314
700.0335	41.8964
700.9977	35.3062
701.9620	28.7231
702.9262	22.7199
703.8904	17.869
704.8547	14.6165
705.8189	13.1845
706.7831	13.536
707.7474	15.413
708.7116	18.43
709.6758	22.1845
710.6401	26.3418
711.6043	30.6711
712.5685	35.0369
713.5328	39.3682
714.4970	43.6311
715.4612	47.8153
716.4255	51.9318
717.3897	56.0094
718.3539	60.0799
719.3182	64.1525
720.2824	68.1908
721.2466	72.1083
722.2109	75.7906
723.1751	79.1328
724.1393	82.0709
725.1036	84.5914
726.0678	86.7178
727.0320	88.487
727.9963	89.9311
728.9605	91.0737
729.9247	91.9391
730.8890	92.5664
731.8532	93.0162
732.8174	93.3622
733.7817	93.6712
734.7459	93.9835
735.7101	94.3064
736.6744	94.626
737.6386	94.9278
738.6028	95.2118
739.5671	95.4903
740.5313	95.7718
741.4955	96.0447
742.4598	96.2783
743.4240	96.4405
744.3882	96.521
745.3525	96.5428
746.3167	96.5512
747.2809	96.5893
748.2452	96.6755
749.2094	96.7977
750.1736	96.9245
751.1379	97.0262
752.1021	97.0901
753.0663	97.1246
754.0306	97.1509
754.9948	97.1905
755.9590	97.2552
756.9233	97.3446
757.8875	97.4494
758.8517	97.5582
759.8160	97.6623
760.7802	97.7561
761.7444	97.8346
762.7087	97.892
763.6729	97.9238
764.6371	97.9329
765.6014	97.933
766.5656	97.9442
767.5298	97.9816
768.4941	98.0438
769.4583	98.1113
770.4225	98.1578
771.3868	98.1682
772.3510	98.1493
773.3152	98.1261
774.2795	98.1244
775.2437	98.1528
776.2079	98.196
777.1722	98.2249
778.1364	98.2157
779.1006	98.1652
780.0649	98.0919
781.0291	98.0233
781.9933	97.9785
782.9576	97.9579
783.9218	97.9459
784.8860	97.923
785.8503	97.8799
786.8145	97.8226
787.7787	97.7678
788.7430	97.7304
789.7072	97.7137
790.6714	97.7068
791.6357	97.6905
792.5999	97.6454
793.5641	97.5581
794.5284	97.4223
795.4926	97.2361
796.4568	97.0004
797.4211	96.7173
798.3853	96.3868
799.3495	96.0024
800.3138	95.5474
801.2780	94.9993
802.2422	94.3454
803.2065	93.6024
804.1707	92.8298
805.1349	92.1239
806.0992	91.5924
807.0634	91.3184
808.0276	91.3293
808.9919	91.585
809.9561	91.9887
810.9203	92.4166
811.8846	92.7512
812.8488	92.9051
813.8130	92.8224
814.7773	92.4594
815.7415	91.7636
816.7057	90.6726
817.6700	89.15
818.6342	87.2494
819.5984	85.1695
820.5627	83.2556
821.5269	81.9234
822.4911	81.525
823.4554	82.2171
824.4196	83.895
825.3839	86.2291
826.3481	88.7844
827.3123	91.1657
828.2766	93.1201
829.2408	94.5639
830.2050	95.5441
831.1693	96.1719
832.1335	96.5657
833.0977	96.8202
834.0620	96.9975
835.0262	97.1313
835.9904	97.2344
836.9547	97.307
837.9189	97.3451
838.8831	97.3476
839.8474	97.3198
840.8116	97.2722
841.7758	97.2168
842.7401	97.163
843.7043	97.1151
844.6685	97.0717
845.6328	97.0277
846.5970	96.9773
847.5612	96.9193
848.5255	96.8606
849.4897	96.8164
850.4539	96.8043
851.4182	96.836
852.3824	96.9113
853.3466	97.0184
854.3109	97.1411
855.2751	97.2672
856.2393	97.3916
857.2036	97.5144
858.1678	97.6336
859.1320	97.742
860.0963	97.8282
861.0605	97.8833
862.0247	97.9069
862.9890	97.9101
863.9532	97.9114
864.9174	97.9293
865.8817	97.9744
866.8459	98.0437
867.8101	98.1202
868.7744	98.1793
869.7386	98.1997
870.7028	98.175
871.6671	98.1192
872.6313	98.062
873.5955	98.0347
874.5598	98.0541
875.5240	98.1139
876.4882	98.1876
877.4525	98.2442
878.4167	98.263
879.3809	98.243
880.3452	98.1991
881.3094	98.1515
882.2736	98.1153
883.2379	98.0962
884.2021	98.0933
885.1663	98.1031
886.1306	98.1209
887.0948	98.1402
888.0590	98.1513
889.0233	98.1439
889.9875	98.1128
890.9517	98.0622
891.9160	98.0049
892.8802	97.9565
893.8444	97.9273
894.8087	97.9175
895.7729	97.9186
896.7371	97.9183
897.7014	97.9061
898.6656	97.8758
899.6298	97.8259
900.5941	97.7595
901.5583	97.6841
902.5225	97.6103
903.4868	97.549
904.4510	97.5065
905.4152	97.4806
906.3795	97.4607
907.3438	97.4335
908.3080	97.3899
909.2722	97.3308
910.2365	97.266
911.2007	97.2093
912.1649	97.1707
913.1292	97.1512
914.0934	97.1421
915.0576	97.1277
916.0219	97.0918
916.9861	97.023
917.9503	96.9192
918.9146	96.7877
919.8788	96.642
920.8430	96.4952
921.8073	96.355
922.7715	96.2203
923.7357	96.0828
924.7000	95.9303
925.6642	95.7488
926.6284	95.5234
927.5927	95.2381
928.5569	94.8762
929.5211	94.426
930.4854	93.8875
931.4496	93.2797
932.4138	92.6425
933.3781	92.0331
934.3423	91.5162
935.3065	91.151
936.2708	90.9782
937.2350	91.0108
938.1992	91.2318
939.1635	91.5998
940.1277	92.06
941.0919	92.5558
942.0562	93.0369
943.0204	93.4622
943.9846	93.8011
944.9489	94.0347
945.9131	94.1585
946.8773	94.1828
947.8416	94.128
948.8058	94.0137
949.7700	93.8473
950.7343	93.6191
951.6985	93.3059
952.6627	92.882
953.6270	92.3289
954.5912	91.6378
955.5554	90.8052
956.5197	89.8268
957.4839	88.6977
958.4481	87.4217
959.4124	86.0244
960.3766	84.563
961.3408	83.1249
962.3051	81.8179
963.2693	80.7528
964.2335	80.028
965.1978	79.7165
966.1620	79.8577
967.1262	80.452
968.0905	81.4575
969.0547	82.7914
970.0189	84.3401
970.9832	85.9765
971.9474	87.5813
972.9116	89.0627
973.8759	90.3648
974.8401	91.4666
975.8043	92.3741
976.7686	93.1089
977.7328	93.7
978.6970	94.1762
979.6613	94.5631
980.6255	94.8801
981.5897	95.1407
982.5540	95.3522
983.5182	95.517
984.4824	95.6346
985.4467	95.7044
986.4109	95.7283
987.3751	95.7134
988.3394	95.6714
989.3036	95.6161
990.2678	95.5587
991.2321	95.5062
992.1963	95.4621
993.1605	95.4285
994.1248	95.4044
995.0890	95.3797
996.0532	95.3276
997.0175	95.2066
997.9817	94.9768
998.9459	94.6279
999.9102	94.2014
1000.8744	93.7902
1001.8386	93.5065
1002.8029	93.4328
1003.7671	93.5811
1004.7313	93.885
1005.6956	94.2289
1006.6598	94.4993
1007.6240	94.6268
1008.5883	94.601
1009.5525	94.4538
1010.5167	94.2275
1011.4810	93.9479
1012.4452	93.6114
1013.4094	93.1903
1014.3737	92.6479
1015.3379	91.9585
1016.3021	91.1191
1017.2664	90.1417
1018.2306	89.0171
1019.1948	87.6666
1020.1591	85.917
1021.1233	83.5478
1022.0875	80.4236
1023.0518	76.6626
1024.0160	72.7413
1024.9802	69.4398
1025.9445	67.608
1026.9087	67.8434
1027.8729	70.2335
1028.8372	74.3012
1029.8014	79.1849
1030.7656	83.9636
1031.7299	87.9625
1032.6941	90.9008
1033.6583	92.8478
1034.6226	94.0587
1035.5868	94.8038
1036.5510	95.2724
1037.5153	95.5633
1038.4795	95.7238
1039.4437	95.7865
1040.4080	95.7837
1041.3722	95.742
1042.3364	95.6773
1043.3007	95.5968
1044.2649	95.5059
1045.2291	95.4101
1046.1934	95.3115
1047.1576	95.2045
1048.1218	95.0765
1049.0861	94.9157
1050.0503	94.7187
1051.0145	94.4919
1051.9788	94.244
1052.9430	93.9763
1053.9072	93.6765
1054.8715	93.3226
1055.8357	92.8915
1056.7999	92.3646
1057.7642	91.7257
1058.7284	90.9521
1059.6926	90.0103
1060.6569	88.8582
1061.6211	87.4528
1062.5853	85.7499
1063.5496	83.6959
1064.5138	81.224
1065.4780	78.2836
1066.4423	74.9145
1067.4065	71.3401
1068.3707	68.015
1069.3350	65.5637
1070.2992	64.5989
1071.2634	65.4837
1072.2277	68.1564
1073.1919	72.1144
1074.1561	76.5804
1075.1204	80.7699
1076.0846	84.1317
1077.0488	86.456
1078.0131	87.8279
1078.9773	88.4868
1079.9415	88.6803
1080.9058	88.5808
1081.8700	88.2747
1082.8342	87.793
1083.7985	87.1459
1084.7627	86.3392
1085.7269	85.3741
1086.6912	84.2421
1087.6554	82.9228
1088.6196	81.3869
1089.5839	79.6019
1090.5481	77.5389
1091.5123	75.1804
1092.4766	72.5292
1093.4408	69.6195
1094.4050	66.528
1095.3693	63.381
1096.3335	60.3495
1097.2977	57.6214
1098.2620	55.3512
1099.2262	53.5991
1100.1904	52.2877
1101.1547	51.207
1102.1189	50.0754
1103.0831	48.6427
1104.0474	46.7916
1105.0116	44.5973
1105.9758	42.3182
1106.9401	40.3239
1107.9043	38.991
1108.8685	38.6087
1109.8328	39.3251
1110.7970	41.1404
1111.7612	43.9368
1112.7255	47.5208
1113.6897	51.6626
1114.6539	56.123
1115.6182	60.6725
1116.5824	65.1054
1117.5466	69.2524
1118.5109	72.9918
1119.4751	76.2552
1120.4393	79.0257
1121.4036	81.3285
1122.3678	83.2151
1123.3320	84.7481
1124.2963	85.9879
1125.2605	86.9866
1126.2247	87.7862
1127.1890	88.4207
1128.1532	88.9193
1129.1174	89.3078
1130.0817	89.6101
1131.0459	89.8493
1132.0101	90.0475
1132.9744	90.226
1133.9386	90.4028
1134.9028	90.5892
1135.8671	90.7857
1136.8313	90.9819
1137.7955	91.1602
1138.7598	91.3029
1139.7240	91.3991
1140.6882	91.4481
1141.6525	91.4575
1142.6167	91.437
1143.5809	91.3926
1144.5452	91.324
1145.5094	91.2259
1146.4736	91.0921
1147.4379	90.9198
1148.4021	90.7117
1149.3663	90.4744
1150.3306	90.2141
1151.2948	89.9323
1152.2590	89.6243
1153.2233	89.2822
1154.1875	88.9033
1155.1517	88.4984
1156.1160	88.0968
1157.0802	87.7417
1158.0444	87.4772
1159.0087	87.3324
1159.9729	87.3087
1160.9371	87.3773
1161.9014	87.4859
1162.8656	87.5711
1163.8298	87.5711
1164.7941	87.433
1165.7583	87.1129
1166.7225	86.5701
1167.6868	85.757
1168.6510	84.6135
1169.6152	83.0759
1170.5795	81.1063
1171.5437	78.7413
1172.5079	76.1385
1173.4722	73.5904
1174.4364	71.4819
1175.4006	70.1913
1176.3649	69.9692
1177.3291	70.8486
1178.2933	72.6268
1179.2576	74.9265
1180.2218	77.3093
1181.1860	79.3924
1182.1503	80.9245
1183.1145	81.8014
1184.0787	82.0348
1185.0430	81.704
1186.0072	80.9213
1186.9714	79.8178
1187.9357	78.5447
1188.8999	77.2741
1189.8641	76.1899
1190.8284	75.4672
1191.7926	75.2441
1192.7568	75.5959
1193.7211	76.5187
1194.6853	77.9305
1195.6495	79.6895
1196.6138	81.626
1197.5780	83.5775
1198.5422	85.4159
1199.5065	87.0603
1200.4707	88.4742
1201.4349	89.6535
1202.3992	90.6124
1203.3634	91.3745
1204.3276	91.9676
1205.2919	92.4221
1206.2561	92.7688
1207.2203	93.0361
1208.1846	93.2467
1209.1488	93.4161
1210.1130	93.5525
1211.0773	93.6589
1212.0415	93.7354
1213.0057	93.7806
1213.9700	93.7936
1214.9342	93.7745
1215.8984	93.7246
1216.8627	93.646
1217.8269	93.5402
1218.7911	93.4072
1219.7554	93.2458
1220.7196	93.0547
1221.6838	92.8337
1222.6481	92.5847
1223.6123	92.3107
1224.5765	92.0135
1225.5408	91.6918
1226.5050	91.341
1227.4692	90.9544
1228.4335	90.525
1229.3977	90.0472
1230.3619	89.5167
1231.3262	88.9285
1232.2904	88.276
1233.2546	87.5492
1234.2189	86.7356
1235.1831	85.8222
1236.1473	84.7985
1237.1116	83.658
1238.0758	82.3982
1239.0400	81.0187
1240.0043	79.5195
1240.9685	77.9009
1241.9327	76.1657
1242.8970	74.3225
1243.8612	72.3876
1244.8254	70.3856
1245.7897	68.348
1246.7539	66.3119
1247.7181	64.3188
1248.6824	62.4113
1249.6466	60.6282
1250.6108	58.9965
1251.5751	57.5246
1252.5393	56.2
1253.5035	54.9915
1254.4678	53.8554
1255.4320	52.7416
1256.3962	51.5975
1257.3605	50.3697
1258.3247	49.0052
1259.2889	47.4541
1260.2532	45.6735
1261.2174	43.6319
1262.1816	41.3144
1263.1459	38.7284
1264.1101	35.9119
1265.0743	32.9408
1266.0386	29.9306
1267.0028	27.029
1267.9670	24.3976
1268.9313	22.191
1269.8955	20.535
1270.8597	19.5125
1271.8240	19.1552
1272.7882	19.4456
1273.7524	20.328
1274.7167	21.7242
1275.6809	23.5491
1276.6451	25.7219
1277.6094	28.1714
1278.5736	30.8372
1279.5378	33.6694
1280.5021	36.6263
1281.4663	39.6745
1282.4305	42.7893
1283.3948	45.9558
1284.3590	49.166
1285.3232	52.4098
1286.2875	55.659
1287.2517	58.8545
1288.2159	61.9089
1289.1802	64.7287
1290.1444	67.2493
1291.1086	69.4626
1292.0729	71.4195
1293.0371	73.2061
1294.0013	74.9053
1294.9656	76.5641
1295.9298	78.1812
1296.8940	79.7187
1297.8583	81.1285
1298.8225	82.3772
1299.7867	83.4571
1300.7510	84.3783
1301.7152	85.1522
1302.6794	85.7762
1303.6437	86.2308
1304.6079	86.4858
1305.5721	86.5082
1306.5364	86.2565
1307.5006	85.663
1308.4648	84.6211
1309.4291	83.0075
1310.3933	80.7552
1311.3575	77.9605
1312.3218	74.9604
1313.2860	72.3063
1314.2502	70.612
1315.2145	70.3377
1316.1787	71.6208
1317.1429	74.2241
1318.1072	77.618
1319.0714	81.1646
1320.0356	84.3367
1320.9999	86.8643
1321.9641	88.7406
1322.9283	90.1138
1323.8926	91.1583
1324.8568	91.9993
1325.8210	92.7009
1326.7853	93.292
1327.7495	93.7933
1328.7137	94.227
1329.6780	94.6131
1330.6422	94.9624
1331.6064	95.2783
1332.5707	95.5611
1333.5349	95.8136
1334.4991	96.0394
1335.4634	96.2405
1336.4276	96.4147
1337.3918	96.5564
1338.3561	96.6612
1339.3203	96.7314
1340.2845	96.7769
1341.2488	96.8118
1342.2130	96.8474
1343.1772	96.8889
1344.1415	96.9361
1345.1057	96.9862
1346.0699	97.0364
1347.0342	97.0862
1347.9984	97.1385
1348.9626	97.1978
1349.9269	97.2672
1350.8911	97.3465
1351.8553	97.4319
1352.8196	97.5175
1353.7838	97.5974
1354.7480	97.667
1355.7123	97.7243
1356.6765	97.7696
1357.6407	97.8051
1358.6050	97.8339
1359.5692	97.8587
1360.5334	97.8817
1361.4977	97.9041
1362.4619	97.9261
1363.4261	97.9475
1364.3904	97.9684
1365.3546	97.9905
1366.3188	98.0168
1367.2831	98.0506
1368.2473	98.0934
1369.2115	98.1434
1370.1758	98.1946
1371.1400	98.2382
1372.1042	98.2656
1373.0685	98.2716
1374.0327	98.2572
1374.9969	98.2296
1375.9612	98.1986
1376.9254	98.171
1377.8896	98.1488
1378.8539	98.131
1379.8181	98.1162
1380.7823	98.1042
1381.7466	98.0947
1382.7108	98.0854
1383.6750	98.0711
1384.6393	98.0444
1385.6035	97.9988
1386.5677	97.9338
1387.5320	97.8582
1388.4962	97.7844
1389.4604	97.7193
1390.4247	97.6601
1391.3889	97.5994
1392.3531	97.5312
1393.3174	97.4569
1394.2816	97.3855
1395.2458	97.329
1396.2101	97.2934
1397.1743	97.2748
1398.1385	97.2642
1399.1028	97.2552
1400.0670	97.2473
1401.0313	97.2429
1401.9955	97.2426
1402.9597	97.2428
1403.9240	97.2362
1404.8882	97.2152
1405.8524	97.1771
1406.8167	97.1267
1407.7809	97.0727
1408.7451	97.0207
1409.7094	96.9686
1410.6736	96.9076
1411.6378	96.8283
1412.6021	96.7282
1413.5663	96.6121
1414.5305	96.4812
1415.4948	96.3211
1416.4590	96.0945
1417.4232	95.7544
1418.3875	95.2798
1419.3517	94.7026
1420.3159	94.0701
1421.2802	93.3806
1422.2444	92.5756
1423.2086	91.589
1424.1729	90.3911
1425.1371	88.9884
1426.1013	87.3735
1427.0656	85.4706
1428.0298	83.1468
1428.9940	80.3222
1429.9583	77.1127
1430.9225	73.8535
1431.8867	70.9509
1432.8510	68.7305
1433.8152	67.4388
1434.7794	67.3159
1435.7437	68.5318
1436.7079	70.9137
1437.6721	73.8232
1438.6364	76.5397
1439.6006	78.7035
1440.5648	80.3092
1441.5291	81.4715
1442.4933	82.2766
1443.4575	82.7493
1444.4218	82.8644
1445.3860	82.555
1446.3502	81.7246
1447.3145	80.3097
1448.2787	78.4045
1449.2429	76.3404
1450.2072	74.5857
1451.1714	73.5319
1452.1356	73.3732
1453.0999	74.1538
1454.0641	75.8842
1455.0283	78.5881
1455.9926	82.1335
1456.9568	85.8696
1457.9210	88.7924
1458.8853	90.4987
1459.8495	91.3676
1460.8137	91.8908
1461.7780	92.3502
1462.7422	92.8607
1463.7064	93.4437
1464.6707	94.0559
1465.6349	94.6181
1466.5991	95.0751
1467.5634	95.4285
1468.5276	95.7148
1469.4918	95.9723
1470.4561	96.2266
1471.4203	96.4855
1472.3845	96.7361
1473.3488	96.9525
1474.3130	97.1174
1475.2772	97.235
1476.2415	97.319
1477.2057	97.3802
1478.1699	97.4245
1479.1342	97.4549
1480.0984	97.4722
1481.0626	97.4749
1482.0269	97.4602
1482.9911	97.4273
1483.9553	97.3782
1484.9196	97.3122
1485.8838	97.2115
1486.8480	97.0265
1487.8123	96.6802
1488.7765	96.1257
1489.7407	95.4338
1490.7050	94.7835
1491.6692	94.3349
1492.6334	94.1569
1493.5977	94.256
1494.5619	94.6155
1495.5261	95.1968
1496.4904	95.9108
1497.4546	96.6107
1498.4188	97.1617
1499.3831	97.5301
1500.3473	97.7704
1501.3115	97.9481
1502.2758	98.0987
1503.2400	98.2305
1504.2042	98.3375
1505.1685	98.4085
1506.1327	98.4363
1507.0969	98.4326
1508.0612	98.4253
1509.0254	98.4289
1509.9896	98.4383
1510.9539	98.4447
1511.9181	98.4432
1512.8823	98.431
1513.8466	98.4074
1514.8108	98.3745
1515.7750	98.3378
1516.7393	98.3046
1517.7035	98.2798
1518.6677	98.2644
1519.6320	98.2563
1520.5962	98.2539
1521.5604	98.2578
1522.5247	98.2688
1523.4889	98.286
1524.4531	98.3069
1525.4174	98.3285
1526.3816	98.3494
1527.3458	98.3692
1528.3101	98.3883
1529.2743	98.4056
1530.2385	98.4195
1531.2028	98.4281
1532.1670	98.4316
1533.1312	98.4349
1534.0955	98.4455
1535.0597	98.4685
1536.0239	98.5035
1536.9882	98.5458
1537.9524	98.5866
1538.9166	98.6108
1539.8809	98.6012
1540.8451	98.5579
1541.8093	98.51
1542.7736	98.4838
1543.7378	98.4806
1544.7020	98.4893
1545.6663	98.4993
1546.6305	98.5041
1547.5947	98.5011
1548.5590	98.4904
1549.5232	98.4733
1550.4874	98.4518
1551.4517	98.4284
1552.4159	98.4058
1553.3801	98.3853
1554.3444	98.3644
1555.3086	98.3352
1556.2728	98.2826
1557.2371	98.1891
1558.2013	98.0607
1559.1655	97.9511
1560.1298	97.9061
1561.0940	97.9091
1562.0582	97.9238
1563.0225	97.9285
1563.9867	97.9162
1564.9509	97.8866
1565.9152	97.8404
1566.8794	97.7742
1567.8436	97.6799
1568.8079	97.5527
1569.7721	97.4022
1570.7363	97.2478
1571.7006	97.0981
1572.6648	96.9331
1573.6290	96.7002
1574.5933	96.3226
1575.5575	95.7438
1576.5217	95.0068
1577.4860	94.263
1578.4502	93.6485
1579.4144	93.2004
1580.3787	92.8994
1581.3429	92.7294
1582.3071	92.6919
1583.2714	92.7883
1584.2356	93.0004
1585.1998	93.2925
1586.1641	93.6303
1587.1283	93.9919
1588.0925	94.3598
1589.0568	94.7075
1590.0210	94.9963
1590.9852	95.1877
1591.9495	95.2516
1592.9137	95.1545
1593.8779	94.8325
1594.8422	94.1768
1595.8064	93.0655
1596.7706	91.443
1597.7349	89.4077
1598.6991	87.2549
1599.6633	85.4398
1600.6276	84.4519
1601.5918	84.6264
1602.5560	85.9728
1603.5203	88.1407
1604.4845	90.5748
1605.4487	92.7598
1606.4130	94.3922
1607.3772	95.4106
1608.3414	95.9278
1609.3057	96.1296
1610.2699	96.1832
1611.2341	96.1886
1612.1984	96.184
1613.1626	96.178
1614.1268	96.174
1615.0911	96.1788
1616.0553	96.1984
1617.0195	96.2322
1617.9838	96.2737
1618.9480	96.3193
1619.9122	96.3717
1620.8765	96.4353
1621.8407	96.5104
1622.8049	96.5893
1623.7692	96.6569
1624.7334	96.6981
1625.6976	96.7045
1626.6619	96.6758
1627.6261	96.6174
1628.5903	96.5406
1629.5546	96.46
1630.5188	96.3874
1631.4830	96.3255
1632.4473	96.2661
1633.4115	96.1927
1634.3757	96.0881
1635.3400	95.9523
1636.3042	95.8167
1637.2684	95.7184
1638.2327	95.6646
1639.1969	95.6392
1640.1611	95.624
1641.1254	95.6077
1642.0896	95.5851
1643.0538	95.5556
1644.0181	95.5238
1644.9823	95.502
1645.9465	95.5079
1646.9108	95.5506
1647.8750	95.6188
1648.8392	95.6921
1649.8035	95.7581
1650.7677	95.8141
1651.7319	95.8617
1652.6962	95.9048
1653.6604	95.9487
1654.6246	95.9968
1655.5889	96.0485
1656.5531	96.1018
1657.5173	96.1551
1658.4816	96.2062
1659.4458	96.2514
1660.4100	96.2854
1661.3743	96.3044
1662.3385	96.3096
1663.3027	96.3073
1664.2670	96.3026
1665.2312	96.2938
1666.1954	96.2715
1667.1597	96.2215
1668.1239	96.1297
1669.0881	95.9926
1670.0524	95.8236
1671.0166	95.6407
1671.9808	95.4447
