TITLE	
DATA TYPE	INFRARED SPECTRUM
ORIGIN	JASCO
OWNER	
DATE	25/10/20
TIME	14:31:53
SPECTROMETER/DATA SYSTEM	
LOCALE	1033
RESOLUTION	
DELTAX	0.964233
XUNITS	1/CM
YUNITS	TRANSMITTANCE
FIRSTX	 1999.8202
LASTX	 6500.8621
NPOINTS	    4669
FIRSTY	    96.35234
MAXY	   103.58340
MINY	    89.49360
XYDATA
1999.8202	96.3523
2000.7844	96.3975
2001.7487	96.4427
2002.7129	96.4816
2003.6771	96.5113
2004.6414	96.5305
2005.6056	96.5387
2006.5698	96.5365
2007.5341	96.5279
2008.4983	96.52
2009.4625	96.5184
2010.4268	96.5236
2011.3910	96.5287
2012.3552	96.5234
2013.3195	96.5013
2014.2837	96.4656
2015.2479	96.4292
2016.2122	96.4075
2017.1764	96.409
2018.1406	96.4299
2019.1049	96.4568
2020.0691	96.4763
2021.0333	96.4826
2021.9976	96.4788
2022.9618	96.4724
2023.9260	96.4689
2024.8903	96.4695
2025.8545	96.4721
2026.8187	96.4753
2027.7830	96.4791
2028.7472	96.4819
2029.7114	96.478
2030.6757	96.4586
2031.6399	96.4166
2032.6041	96.3537
2033.5684	96.2823
2034.5326	96.2212
2035.4968	96.1864
2036.4611	96.1834
2037.4253	96.2062
2038.3895	96.2421
2039.3538	96.278
2040.3180	96.3044
2041.2822	96.316
2042.2465	96.3103
2043.2107	96.2864
2044.1749	96.2464
2045.1392	96.1967
2046.1034	96.1477
2047.0676	96.1103
2048.0320	96.0912
2048.9961	96.0892
2049.9604	96.097
2050.9246	96.1056
2051.8889	96.1093
2052.8530	96.1075
2053.8174	96.1026
2054.7815	96.0972
2055.7458	96.0911
2056.7100	96.0821
2057.6743	96.067
2058.6384	96.0439
2059.6028	96.0132
2060.5669	95.9769
2061.5313	95.9385
2062.4954	95.903
2063.4597	95.876
2064.4238	95.8627
2065.3882	95.8645
2066.3523	95.8774
2067.3167	95.8932
2068.2808	95.9031
2069.2451	95.9022
2070.2092	95.8917
2071.1736	95.8767
2072.1377	95.8616
2073.1021	95.8466
2074.0662	95.8277
2075.0305	95.8009
2075.9946	95.7671
2076.9590	95.7336
2077.9231	95.7112
2078.8875	95.7079
2079.8516	95.7236
2080.8159	95.75
2081.7800	95.7737
2082.7444	95.7834
2083.7085	95.7741
2084.6729	95.7491
2085.6370	95.717
2086.6013	95.6875
2087.5654	95.6675
2088.5298	95.6592
2089.4939	95.6607
2090.4583	95.6675
2091.4224	95.6748
2092.3867	95.6793
2093.3508	95.6799
2094.3152	95.6781
2095.2793	95.6766
2096.2437	95.6778
2097.2078	95.6823
2098.1721	95.6883
2099.1362	95.693
2100.1006	95.6937
2101.0647	95.6894
2102.0291	95.6807
2102.9932	95.6687
2103.9575	95.6541
2104.9216	95.6362
2105.8860	95.6147
2106.8501	95.59
2107.8145	95.5646
2108.7786	95.5421
2109.7429	95.5256
2110.7070	95.5159
2111.6714	95.5115
2112.6355	95.5091
2113.5999	95.5064
2114.5640	95.503
2115.5283	95.5002
2116.4924	95.4999
2117.4568	95.502
2118.4209	95.5047
2119.3853	95.5053
2120.3494	95.5026
2121.3137	95.4983
2122.2778	95.4954
2123.2422	95.4957
2124.2063	95.4984
2125.1707	95.5001
2126.1348	95.4989
2127.0991	95.4968
2128.0632	95.5004
2129.0276	95.5167
2129.9917	95.5474
2130.9561	95.5864
2131.9202	95.6217
2132.8845	95.6416
2133.8486	95.6417
2134.8130	95.6263
2135.7771	95.605
2136.7415	95.5861
2137.7056	95.5727
2138.6699	95.564
2139.6340	95.5596
2140.5984	95.5628
2141.5625	95.5786
2142.5269	95.6088
2143.4910	95.6486
2144.4553	95.687
2145.4194	95.7137
2146.3838	95.7249
2147.3479	95.7262
2148.3123	95.7276
2149.2764	95.7356
2150.2407	95.7489
2151.2048	95.759
2152.1692	95.758
2153.1333	95.7448
2154.0977	95.7266
2155.0618	95.7138
2156.0261	95.7115
2156.9902	95.7153
2157.9546	95.7133
2158.9187	95.6945
2159.8831	95.6573
2160.8472	95.61
2161.8115	95.5643
2162.7756	95.5274
2163.7400	95.499
2164.7041	95.4734
2165.6685	95.4448
2166.6326	95.4112
2167.5969	95.3756
2168.5610	95.3447
2169.5254	95.326
2170.4895	95.3249
2171.4539	95.342
2172.4180	95.3712
2173.3823	95.4006
2174.3464	95.4165
2175.3108	95.4086
2176.2749	95.3753
2177.2393	95.3238
2178.2034	95.2661
2179.1677	95.2132
2180.1318	95.1714
2181.0962	95.1424
2182.0603	95.1257
2183.0247	95.1203
2183.9888	95.124
2184.9531	95.132
2185.9172	95.1366
2186.8816	95.1298
2187.8457	95.1085
2188.8101	95.0769
2189.7742	95.0449
2190.7385	95.0231
2191.7026	95.0172
2192.6670	95.0253
2193.6311	95.0394
2194.5955	95.0498
2195.5596	95.0493
2196.5239	95.036
2197.4880	95.0133
2198.4524	94.9877
2199.4165	94.9663
2200.3809	94.9536
2201.3450	94.9495
2202.3093	94.9498
2203.2734	94.9484
2204.2378	94.9409
2205.2019	94.9274
2206.1663	94.9124
2207.1304	94.9017
2208.0947	94.8996
2209.0588	94.9055
2210.0232	94.9148
2210.9873	94.9207
2211.9517	94.917
2212.9158	94.9
2213.8801	94.8699
2214.8442	94.83
2215.8086	94.7865
2216.7727	94.7474
2217.7371	94.7199
2218.7012	94.7085
2219.6655	94.7128
2220.6296	94.7275
2221.5940	94.7437
2222.5581	94.7518
2223.5225	94.7448
2224.4866	94.7196
2225.4509	94.6788
2226.4150	94.6288
2227.3794	94.5787
2228.3435	94.5372
2229.3079	94.5104
2230.2720	94.4992
2231.2363	94.4989
2232.2004	94.5005
2233.1648	94.4939
2234.1289	94.4726
2235.0933	94.4362
2236.0574	94.391
2237.0217	94.3461
2237.9858	94.3087
2238.9502	94.2808
2239.9143	94.259
2240.8787	94.2379
2241.8428	94.2153
2242.8071	94.1934
2243.7712	94.1773
2244.7356	94.1707
2245.6997	94.1726
2246.6641	94.1776
2247.6282	94.18
2248.5925	94.1777
2249.5566	94.1737
2250.5210	94.1732
2251.4851	94.1792
2252.4495	94.1901
2253.4136	94.2013
2254.3779	94.2096
2255.3420	94.216
2256.3064	94.2261
2257.2705	94.2447
2258.2349	94.2718
2259.1990	94.3008
2260.1633	94.3216
2261.1274	94.3274
2262.0918	94.3188
2263.0559	94.3042
2264.0203	94.2937
2264.9844	94.2931
2265.9487	94.2994
2266.9128	94.3027
2267.8772	94.2931
2268.8413	94.2672
2269.8057	94.231
2270.7698	94.1966
2271.7341	94.1757
2272.6982	94.1732
2273.6626	94.1855
2274.6267	94.2033
2275.5911	94.2167
2276.5552	94.2199
2277.5195	94.2117
2278.4836	94.1945
2279.4480	94.1715
2280.4121	94.1451
2281.3765	94.1164
2282.3406	94.0862
2283.3049	94.0557
2284.2690	94.0266
2285.2334	94.0006
2286.1975	93.9794
2287.1619	93.9637
2288.1260	93.9532
2289.0903	93.9462
2290.0544	93.9401
2291.0188	93.9325
2291.9829	93.9214
2292.9473	93.9061
2293.9114	93.8875
2294.8757	93.8672
2295.8398	93.8473
2296.8042	93.8293
2297.7683	93.8136
2298.7327	93.7989
2299.6968	93.7822
2300.6611	93.7603
2301.6252	93.7312
2302.5896	93.6962
2303.5537	93.6598
2304.5181	93.6275
2305.4822	93.6025
2306.4465	93.5837
2307.4106	93.5654
2308.3750	93.5408
2309.3391	93.5061
2310.3035	93.4634
2311.2676	93.4195
2312.2319	93.3815
2313.1960	93.3528
2314.1604	93.3309
2315.1245	93.3094
2316.0889	93.2826
2317.0530	93.2486
2318.0173	93.2101
2318.9814	93.1727
2319.9458	93.1413
2320.9099	93.1181
2321.8743	93.1019
2322.8384	93.0897
2323.8027	93.0782
2324.7668	93.0653
2325.7312	93.0505
2326.6953	93.0348
2327.6597	93.0204
2328.6238	93.0098
2329.5881	93.0045
2330.5522	93.0037
2331.5166	93.0036
2332.4807	92.9994
2333.4451	92.9872
2334.4092	92.967
2335.3735	92.9418
2336.3376	92.9162
2337.3020	92.8934
2338.2661	92.8729
2339.2305	92.8517
2340.1946	92.8269
2341.1589	92.7996
2342.1230	92.7763
2343.0874	92.7655
2344.0515	92.7724
2345.0159	92.7933
2345.9800	92.8164
2346.9443	92.8288
2347.9084	92.8218
2348.8728	92.793
2349.8369	92.7449
2350.8013	92.6842
2351.7654	92.6212
2352.7297	92.568
2353.6938	92.5335
2354.6582	92.5182
2355.6223	92.5131
2356.5867	92.5061
2357.5508	92.4898
2358.5151	92.4664
2359.4792	92.4456
2360.4436	92.4379
2361.4077	92.447
2362.3721	92.4664
2363.3362	92.4829
2364.3005	92.4838
2365.2646	92.4649
2366.2290	92.4328
2367.1931	92.4018
2368.1575	92.3861
2369.1216	92.3928
2370.0859	92.4192
2371.0500	92.4554
2372.0144	92.4905
2372.9785	92.5182
2373.9429	92.539
2374.9070	92.558
2375.8713	92.5813
2376.8354	92.6117
2377.7998	92.6481
2378.7639	92.6863
2379.7283	92.7223
2380.6924	92.754
2381.6567	92.781
2382.6208	92.8037
2383.5852	92.8215
2384.5493	92.8329
2385.5137	92.8358
2386.4778	92.83
2387.4421	92.8178
2388.4063	92.8036
2389.3706	92.7918
2390.3347	92.7851
2391.2991	92.7828
2392.2632	92.782
2393.2275	92.7788
2394.1917	92.7704
2395.1560	92.7561
2396.1201	92.7376
2397.0845	92.7183
2398.0486	92.7018
2399.0129	92.6905
2399.9771	92.6842
2400.9414	92.6804
2401.9055	92.6748
2402.8699	92.6645
2403.8340	92.6488
2404.7983	92.6299
2405.7625	92.6104
2406.7268	92.5917
2407.6909	92.5723
2408.6553	92.5498
2409.6194	92.523
2410.5837	92.4938
2411.5479	92.4668
2412.5122	92.4467
2413.4763	92.4359
2414.4407	92.433
2415.4048	92.4341
2416.3691	92.4342
2417.3333	92.4291
2418.2976	92.4164
2419.2617	92.3952
2420.2261	92.3663
2421.1902	92.3327
2422.1545	92.2991
2423.1187	92.2702
2424.0830	92.2495
2425.0471	92.2368
2426.0115	92.2291
2426.9756	92.2216
2427.9399	92.2098
2428.9041	92.1916
2429.8684	92.1669
2430.8325	92.1375
2431.7969	92.1054
2432.7610	92.0731
2433.7253	92.0427
2434.6895	92.0159
2435.6538	91.9936
2436.6179	91.9752
2437.5823	91.9594
2438.5464	91.9436
2439.5107	91.9254
2440.4749	91.9023
2441.4392	91.8734
2442.4033	91.8393
2443.3677	91.8031
2444.3318	91.7691
2445.2961	91.7417
2446.2603	91.7225
2447.2246	91.7096
2448.1887	91.6985
2449.1531	91.6846
2450.1172	91.6656
2451.0815	91.6418
2452.0457	91.6148
2453.0100	91.5856
2453.9741	91.5535
2454.9385	91.5177
2455.9026	91.4791
2456.8669	91.4411
2457.8311	91.4081
2458.7954	91.3824
2459.7595	91.3625
2460.7239	91.3432
2461.6880	91.3193
2462.6523	91.2887
2463.6165	91.2535
2464.5808	91.2188
2465.5449	91.1888
2466.5093	91.1644
2467.4734	91.1423
2468.4377	91.1177
2469.4019	91.0868
2470.3662	91.0493
2471.3303	91.0089
2472.2947	90.9705
2473.2588	90.9381
2474.2231	90.9121
2475.1873	90.89
2476.1516	90.8683
2477.1157	90.8447
2478.0801	90.82
2479.0442	90.796
2480.0085	90.7742
2480.9727	90.7533
2481.9370	90.7302
2482.9011	90.7019
2483.8655	90.6677
2484.8296	90.6302
2485.7939	90.593
2486.7581	90.5576
2487.7224	90.5229
2488.6865	90.4854
2489.6509	90.4431
2490.6150	90.3964
2491.5793	90.3487
2492.5435	90.3035
2493.5078	90.2624
2494.4719	90.2245
2495.4363	90.1872
2496.4004	90.1487
2497.3647	90.1082
2498.3289	90.0663
2499.2932	90.0242
2500.2573	89.9837
2501.2217	89.9477
2502.1858	89.9192
2503.1501	89.9005
2504.1143	89.8913
2505.0786	89.8872
2506.0427	89.8813
2507.0071	89.8673
2507.9712	89.8426
2508.9355	89.81
2509.8997	89.7774
2510.8640	89.7535
2511.8281	89.7451
2512.7925	89.7538
2513.7566	89.7761
2514.7209	89.8046
2515.6851	89.8312
2516.6494	89.8493
2517.6135	89.856
2518.5779	89.852
2519.5420	89.8415
2520.5063	89.8295
2521.4705	89.8206
2522.4348	89.8167
2523.3989	89.8173
2524.3633	89.8197
2525.3274	89.8212
2526.2917	89.82
2527.2559	89.8162
2528.2202	89.8118
2529.1843	89.8091
2530.1487	89.8098
2531.1128	89.8145
2532.0771	89.8234
2533.0413	89.8374
2534.0056	89.8587
2534.9697	89.8908
2535.9341	89.9368
2536.8982	89.998
2537.8625	90.0727
2538.8267	90.1568
2539.7910	90.2457
2540.7551	90.3351
2541.7195	90.4221
2542.6836	90.5044
2543.6479	90.5802
2544.6121	90.6481
2545.5764	90.7076
2546.5405	90.7598
2547.5049	90.8065
2548.4690	90.8489
2549.4333	90.8858
2550.3975	90.9138
2551.3618	90.9288
2552.3259	90.9284
2553.2903	90.9137
2554.2544	90.8894
2555.2188	90.8619
2556.1829	90.8368
2557.1472	90.8178
2558.1113	90.8059
2559.0757	90.8008
2560.0398	90.8015
2561.0042	90.8065
2561.9683	90.8137
2562.9326	90.8199
2563.8967	90.8216
2564.8611	90.8159
2565.8252	90.8018
2566.7896	90.7803
2567.7537	90.7544
2568.7180	90.7269
2569.6821	90.7
2570.6465	90.6743
2571.6106	90.65
2572.5750	90.6279
2573.5391	90.6099
2574.5034	90.5987
2575.4675	90.5964
2576.4319	90.6033
2577.3960	90.617
2578.3604	90.6339
2579.3245	90.651
2580.2888	90.6678
2581.2529	90.687
2582.2173	90.7135
2583.1814	90.7518
2584.1458	90.8038
2585.1099	90.8677
2586.0742	90.9385
2587.0383	91.0103
2588.0027	91.0787
2588.9668	91.1414
2589.9312	91.1978
2590.8953	91.2476
2591.8596	91.2892
2592.8237	91.3208
2593.7881	91.3405
2594.7522	91.3488
2595.7166	91.3486
2596.6807	91.3441
2597.6450	91.3395
2598.6091	91.3371
2599.5735	91.3371
2600.5376	91.3376
2601.5020	91.3361
2602.4661	91.3312
2603.4304	91.3225
2604.3945	91.3115
2605.3589	91.3003
2606.3230	91.2908
2607.2874	91.2832
2608.2515	91.277
2609.2158	91.2706
2610.1799	91.263
2611.1443	91.2534
2612.1084	91.2415
2613.0728	91.2258
2614.0369	91.2046
2615.0012	91.1765
2615.9653	91.1418
2616.9297	91.1035
2617.8938	91.0658
2618.8582	91.0317
2619.8223	91.0017
2620.7866	90.9733
2621.7507	90.9431
2622.7151	90.909
2623.6792	90.8711
2624.6436	90.8316
2625.6077	90.7927
2626.5720	90.7556
2627.5361	90.7206
2628.5005	90.6875
2629.4646	90.6563
2630.4290	90.6268
2631.3931	90.5982
2632.3574	90.5689
2633.3215	90.5376
2634.2859	90.5041
2635.2500	90.4701
2636.2144	90.4381
2637.1785	90.4096
2638.1428	90.3839
2639.1069	90.3581
2640.0713	90.3287
2641.0354	90.2937
2641.9998	90.2535
2642.9639	90.2102
2643.9282	90.1667
2644.8923	90.1252
2645.8567	90.0871
2646.8208	90.0533
2647.7852	90.0246
2648.7493	90.0022
2649.7136	89.9861
2650.6777	89.9751
2651.6421	89.9666
2652.6062	89.9571
2653.5706	89.9446
2654.5347	89.929
2655.4990	89.9131
2656.4631	89.9009
2657.4275	89.8966
2658.3916	89.9023
2659.3560	89.9179
2660.3201	89.9409
2661.2844	89.9679
2662.2485	89.9953
2663.2129	90.0203
2664.1770	90.0414
2665.1414	90.058
2666.1055	90.0703
2667.0698	90.0786
2668.0339	90.0838
2668.9983	90.0869
2669.9624	90.0894
2670.9268	90.0931
2671.8909	90.0992
2672.8552	90.1077
2673.8193	90.1175
2674.7837	90.1267
2675.7478	90.1336
2676.7122	90.1378
2677.6763	90.1403
2678.6406	90.1425
2679.6047	90.1457
2680.5691	90.15
2681.5332	90.1548
2682.4976	90.1599
2683.4617	90.1661
2684.4260	90.175
2685.3901	90.188
2686.3545	90.2049
2687.3186	90.2241
2688.2830	90.2427
2689.2471	90.2588
2690.2114	90.2719
2691.1755	90.2833
2692.1399	90.2951
2693.1040	90.3087
2694.0684	90.3252
2695.0325	90.3448
2695.9968	90.3676
2696.9609	90.3941
2697.9253	90.4243
2698.8894	90.4573
2699.8538	90.4913
2700.8179	90.5243
2701.7822	90.5557
2702.7463	90.5869
2703.7107	90.6205
2704.6748	90.6588
2705.6392	90.7018
2706.6033	90.7467
2707.5676	90.7892
2708.5317	90.8258
2709.4961	90.8558
2710.4602	90.8813
2711.4246	90.9056
2712.3887	90.9307
2713.3530	90.9562
2714.3171	90.98
2715.2815	91.0005
2716.2456	91.0177
2717.2100	91.0339
2718.1741	91.0515
2719.1384	91.0714
2720.1025	91.0919
2721.0669	91.1096
2722.0310	91.1215
2722.9954	91.127
2723.9595	91.1279
2724.9238	91.1279
2725.8879	91.1305
2726.8523	91.1372
2727.8164	91.1481
2728.7808	91.1618
2729.7449	91.1774
2730.7092	91.1934
2731.6733	91.2085
2732.6377	91.22
2733.6018	91.225
2734.5662	91.221
2735.5303	91.2078
2736.4946	91.1876
2737.4587	91.1648
2738.4231	91.1433
2739.3872	91.1258
2740.3516	91.1128
2741.3157	91.1031
2742.2800	91.0952
2743.2441	91.0876
2744.2085	91.0796
2745.1726	91.0707
2746.1370	91.0604
2747.1011	91.0485
2748.0654	91.0347
2749.0295	91.019
2749.9939	91.0014
2750.9580	90.9823
2751.9224	90.9628
2752.8865	90.9446
2753.8508	90.9295
2754.8149	90.918
2755.7793	90.9085
2756.7434	90.8979
2757.7078	90.8821
2758.6719	90.8587
2759.6362	90.828
2760.6003	90.7932
2761.5647	90.7592
2762.5288	90.7306
2763.4932	90.7095
2764.4573	90.6952
2765.4216	90.6852
2766.3857	90.6762
2767.3501	90.6652
2768.3142	90.6501
2769.2786	90.6291
2770.2427	90.6017
2771.2070	90.5685
2772.1711	90.5322
2773.1355	90.4969
2774.0996	90.4666
2775.0640	90.4424
2776.0281	90.4222
2776.9924	90.4009
2777.9565	90.3736
2778.9209	90.3385
2779.8850	90.2981
2780.8494	90.2575
2781.8135	90.2218
2782.7778	90.1932
2783.7419	90.1702
2784.7063	90.1499
2785.6704	90.1297
2786.6348	90.1093
2787.5989	90.0903
2788.5632	90.0748
2789.5273	90.0632
2790.4917	90.0535
2791.4558	90.0425
2792.4202	90.027
2793.3843	90.0056
2794.3486	89.9794
2795.3127	89.951
2796.2771	89.9234
2797.2412	89.8988
2798.2056	89.8778
2799.1697	89.8597
2800.1340	89.8435
2801.0981	89.8283
2802.0625	89.8137
2803.0266	89.7996
2803.9910	89.7859
2804.9551	89.7726
2805.9194	89.7598
2806.8835	89.7475
2807.8479	89.7354
2808.8120	89.7225
2809.7764	89.7079
2810.7405	89.6911
2811.7048	89.6735
2812.6689	89.6576
2813.6333	89.6463
2814.5974	89.6409
2815.5618	89.6401
2816.5259	89.6405
2817.4902	89.6383
2818.4543	89.631
2819.4187	89.6187
2820.3828	89.6042
2821.3472	89.5914
2822.3113	89.5839
2823.2756	89.5832
2824.2397	89.5885
2825.2041	89.5973
2826.1682	89.6064
2827.1326	89.6136
2828.0967	89.6181
2829.0610	89.6209
2830.0251	89.6241
2830.9895	89.6293
2831.9536	89.6373
2832.9180	89.6476
2833.8821	89.659
2834.8464	89.67
2835.8105	89.6797
2836.7749	89.6879
2837.7390	89.6953
2838.7034	89.703
2839.6675	89.7118
2840.6318	89.7213
2841.5959	89.7294
2842.5603	89.7327
2843.5244	89.728
2844.4888	89.7139
2845.4529	89.6922
2846.4172	89.6677
2847.3813	89.646
2848.3457	89.6317
2849.3098	89.6259
2850.2742	89.6265
2851.2383	89.6293
2852.2026	89.6304
2853.1667	89.6276
2854.1311	89.6203
2855.0952	89.6094
2856.0596	89.5959
2857.0237	89.5811
2857.9880	89.5664
2858.9521	89.5536
2859.9165	89.5451
2860.8806	89.5429
2861.8450	89.5478
2862.8091	89.5595
2863.7734	89.5762
2864.7375	89.5956
2865.7019	89.616
2866.6660	89.6369
2867.6304	89.6584
2868.5945	89.6806
2869.5588	89.703
2870.5229	89.7242
2871.4873	89.7427
2872.4514	89.7582
2873.4158	89.7725
2874.3799	89.7888
2875.3442	89.8113
2876.3083	89.8432
2877.2727	89.8855
2878.2368	89.9367
2879.2012	89.9931
2880.1653	90.0503
2881.1296	90.1039
2882.0938	90.1511
2883.0581	90.1912
2884.0222	90.2258
2884.9866	90.2577
2885.9507	90.2897
2886.9150	90.3227
2887.8792	90.3554
2888.8435	90.3849
2889.8076	90.4082
2890.7720	90.4243
2891.7361	90.435
2892.7004	90.4439
2893.6646	90.4549
2894.6289	90.4698
2895.5930	90.4876
2896.5574	90.5046
2897.5215	90.5169
2898.4858	90.5223
2899.4500	90.5219
2900.4143	90.519
2901.3784	90.5177
2902.3428	90.5202
2903.3069	90.5259
2904.2712	90.5318
2905.2354	90.5349
2906.1997	90.5337
2907.1638	90.5292
2908.1282	90.5236
2909.0923	90.5189
2910.0566	90.5158
2911.0208	90.5147
2911.9851	90.5157
2912.9492	90.5198
2913.9136	90.5275
2914.8777	90.5385
2915.8420	90.5511
2916.8062	90.563
2917.7705	90.5742
2918.7346	90.5872
2919.6990	90.6066
2920.6631	90.6364
2921.6274	90.6768
2922.5916	90.7239
2923.5559	90.7708
2924.5200	90.8115
2925.4844	90.8428
2926.4485	90.865
2927.4128	90.8798
2928.3770	90.8873
2929.3413	90.8857
2930.3054	90.8731
2931.2698	90.8505
2932.2339	90.824
2933.1982	90.8034
2934.1624	90.7979
2935.1267	90.8113
2936.0908	90.8397
2937.0552	90.873
2938.0193	90.8998
2938.9836	90.9128
2939.9478	90.9115
2940.9121	90.9014
2941.8762	90.8906
2942.8406	90.8856
2943.8047	90.8891
2944.7690	90.8997
2945.7332	90.9138
2946.6975	90.9271
2947.6616	90.937
2948.6260	90.9429
2949.5901	90.9462
2950.5544	90.9497
2951.5186	90.956
2952.4829	90.9663
2953.4470	90.9791
2954.4114	90.9902
2955.3755	90.9943
2956.3398	90.9877
2957.3040	90.971
2958.2683	90.9491
2959.2324	90.9301
2960.1968	90.921
2961.1609	90.9249
2962.1252	90.9387
2963.0894	90.9553
2964.0537	90.9663
2965.0178	90.966
2965.9822	90.9534
2966.9463	90.9318
2967.9106	90.9065
2968.8748	90.8829
2969.8391	90.8639
2970.8032	90.8497
2971.7676	90.8381
2972.7317	90.8266
2973.6960	90.8141
2974.6602	90.8018
2975.6245	90.7929
2976.5886	90.7904
2977.5530	90.7948
2978.5171	90.8033
2979.4814	90.8106
2980.4456	90.8121
2981.4099	90.8061
2982.3740	90.7952
2983.3384	90.7842
2984.3025	90.778
2985.2668	90.7789
2986.2310	90.7864
2987.1953	90.7981
2988.1594	90.811
2989.1238	90.8232
2990.0879	90.8336
2991.0522	90.8424
2992.0164	90.8504
2992.9807	90.8587
2993.9448	90.8681
2994.9092	90.8793
2995.8733	90.8925
2996.8376	90.9071
2997.8018	90.9221
2998.7661	90.9361
2999.7302	90.9472
3000.6946	90.9548
3001.6587	90.96
3002.6230	90.9662
3003.5872	90.9781
