TITLE	
DATA TYPE	INFRARED SPECTRUM
ORIGIN	JASCO
OWNER	
DATE	25/10/20
TIME	14:24:49
SPECTROMETER/DATA SYSTEM	
LOCALE	1033
RESOLUTION	
DELTAX	0.964233
XUNITS	1/CM
YUNITS	TRANSMITTANCE
FIRSTX	 1999.8202
LASTX	 6500.8621
NPOINTS	    4669
FIRSTY	    99.26371
MAXY	   104.28822
MINY	    77.57877
XYDATA
1999.8202	99.2637
2000.7844	99.3075
2001.7487	99.3697
2002.7129	99.4391
2003.6771	99.5025
2004.6414	99.5493
2005.6056	99.5765
2006.5698	99.5902
2007.5341	99.6018
2008.4983	99.6207
2009.4625	99.648
2010.4268	99.6756
2011.3910	99.6908
2012.3552	99.6844
2013.3195	99.6559
2014.2837	99.6149
2015.2479	99.5774
2016.2122	99.5588
2017.1764	99.5671
2018.1406	99.5987
2019.1049	99.6407
2020.0691	99.6768
2021.0333	99.6962
2021.9976	99.698
2022.9618	99.6917
2023.9260	99.6918
2024.8903	99.7094
2025.8545	99.7457
2026.8187	99.7905
2027.7830	99.827
2028.7472	99.8405
2029.7114	99.8254
2030.6757	99.7877
2031.6399	99.7408
2032.6041	99.6995
2033.5684	99.6734
2034.5326	99.6646
2035.4968	99.6697
2036.4611	99.683
2037.4253	99.7007
2038.3895	99.7207
2039.3538	99.7418
2040.3180	99.762
2041.2822	99.7783
2042.2465	99.7887
2043.2107	99.7937
2044.1749	99.7971
2045.1392	99.8037
2046.1034	99.8163
2047.0676	99.8329
2048.0320	99.8473
2048.9961	99.8519
2049.9604	99.8428
2050.9246	99.8219
2051.8889	99.7965
2052.8530	99.7759
2053.8174	99.7666
2054.7815	99.7707
2055.7458	99.7851
2056.7100	99.8039
2057.6743	99.8205
2058.6384	99.8298
2059.6028	99.8289
2060.5669	99.8186
2061.5313	99.8029
2062.4954	99.7897
2063.4597	99.7873
2064.4238	99.8003
2065.3882	99.8258
2066.3523	99.854
2067.3167	99.8724
2068.2808	99.8737
2069.2451	99.8597
2070.2092	99.84
2071.1736	99.8257
2072.1377	99.8232
2073.1021	99.8302
2074.0662	99.8387
2075.0305	99.8402
2075.9946	99.8313
2076.9590	99.8153
2077.9231	99.7996
2078.8875	99.7914
2079.8516	99.7943
2080.8159	99.8071
2081.7800	99.824
2082.7444	99.8379
2083.7085	99.8433
2084.6729	99.8389
2085.6370	99.8283
2086.6013	99.8183
2087.5654	99.8149
2088.5298	99.8199
2089.4939	99.8296
2090.4583	99.8374
2091.4224	99.838
2092.3867	99.8301
2093.3508	99.8179
2094.3152	99.8074
2095.2793	99.8035
2096.2437	99.807
2097.2078	99.8159
2098.1721	99.8275
2099.1362	99.8405
2100.1006	99.8558
2101.0647	99.8742
2102.0291	99.8942
2102.9932	99.9108
2103.9575	99.9169
2104.9216	99.9064
2105.8860	99.8779
2106.8501	99.8367
2107.8145	99.7937
2108.7786	99.7611
2109.7429	99.7476
2110.7070	99.7547
2111.6714	99.7763
2112.6355	99.8024
2113.5999	99.8235
2114.5640	99.8338
2115.5283	99.8316
2116.4924	99.818
2117.4568	99.7951
2118.4209	99.7655
2119.3853	99.7339
2120.3494	99.7072
2121.3137	99.6929
2122.2778	99.6954
2123.2422	99.7123
2124.2063	99.7349
2125.1707	99.7522
2126.1348	99.7578
2127.0991	99.7537
2128.0632	99.749
2129.0276	99.7544
2129.9917	99.7749
2130.9561	99.8063
2131.9202	99.8376
2132.8845	99.8568
2133.8486	99.8575
2134.8130	99.8417
2135.7771	99.8176
2136.7415	99.7949
2137.7056	99.7791
2138.6699	99.7707
2139.6340	99.7665
2140.5984	99.7632
2141.5625	99.761
2142.5269	99.7631
2143.4910	99.7743
2144.4553	99.7967
2145.4194	99.8279
2146.3838	99.8611
2147.3479	99.8888
2148.3123	99.9057
2149.2764	99.9105
2150.2407	99.9038
2151.2048	99.8855
2152.1692	99.8547
2153.1333	99.8121
2154.0977	99.7629
2155.0618	99.7184
2156.0261	99.692
2156.9902	99.6928
2157.9546	99.7196
2158.9187	99.7617
2159.8831	99.804
2160.8472	99.8357
2161.8115	99.8525
2162.7756	99.8545
2163.7400	99.8426
2164.7041	99.8176
2165.6685	99.7821
2166.6326	99.742
2167.5969	99.705
2168.5610	99.6771
2169.5254	99.6584
2170.4895	99.6437
2171.4539	99.6245
2172.4180	99.5935
2173.3823	99.5478
2174.3464	99.49
2175.3108	99.4273
2176.2749	99.37
2177.2393	99.3292
2178.2034	99.314
2179.1677	99.3293
2180.1318	99.3733
2181.0962	99.4372
2182.0603	99.5078
2183.0247	99.5716
2183.9888	99.6188
2184.9531	99.645
2185.9172	99.6511
2186.8816	99.6413
2187.8457	99.6213
2188.8101	99.5973
2189.7742	99.575
2190.7385	99.5588
2191.7026	99.5502
2192.6670	99.5477
2193.6311	99.5461
2194.5955	99.5377
2195.5596	99.5143
2196.5239	99.4698
2197.4880	99.4022
2198.4524	99.3156
2199.4165	99.2194
2200.3809	99.1255
2201.3450	99.0446
2202.3093	98.9827
2203.2734	98.9405
2204.2378	98.9142
2205.2019	98.8981
2206.1663	98.8869
2207.1304	98.875
2208.0947	98.8558
2209.0588	98.8198
2210.0232	98.754
2210.9873	98.6431
2211.9517	98.4713
2212.9158	98.2247
2213.8801	97.8924
2214.8442	97.4661
2215.8086	96.9381
2216.7727	96.2971
2217.7371	95.5237
2218.7012	94.5865
2219.6655	93.44
2220.6296	92.0287
2221.5940	90.3007
2222.5581	88.2337
2223.5225	85.8709
2224.4866	83.354
2225.4509	80.9359
2226.4150	78.9517
2227.3794	77.7473
2228.3435	77.5788
2229.3079	78.5244
2230.2720	80.4463
2231.2363	83.0249
2232.2004	85.8544
2233.1648	88.5576
2234.1289	90.8733
2235.0933	92.6876
2236.0574	94.0109
2237.0217	94.9267
2237.9858	95.5422
2238.9502	95.96
2239.9143	96.2687
2240.8787	96.5408
2241.8428	96.8286
2242.8071	97.1571
2243.7712	97.5202
2244.7356	97.8874
2245.6997	98.2197
2246.6641	98.4879
2247.6282	98.6829
2248.5925	98.8157
2249.5566	98.907
2250.5210	98.975
2251.4851	99.0282
2252.4495	99.0657
2253.4136	99.0838
2254.3779	99.0833
2255.3420	99.0735
2256.3064	99.0693
2257.2705	99.0857
2258.2349	99.1297
2259.1990	99.1985
2260.1633	99.2804
2261.1274	99.3614
2262.0918	99.4305
2263.0559	99.4837
2264.0203	99.5227
2264.9844	99.5521
2265.9487	99.5753
2266.9128	99.5927
2267.8772	99.6024
2268.8413	99.602
2269.8057	99.5912
2270.7698	99.5723
2271.7341	99.55
2272.6982	99.5303
2273.6626	99.5186
2274.6267	99.5189
2275.5911	99.5319
2276.5552	99.5552
2277.5195	99.5834
2278.4836	99.6102
2279.4480	99.631
2280.4121	99.6446
2281.3765	99.6533
2282.3406	99.6602
2283.3049	99.6671
2284.2690	99.6732
2285.2334	99.6763
2286.1975	99.6755
2287.1619	99.673
2288.1260	99.6735
2289.0903	99.6815
2290.0544	99.6978
2291.0188	99.718
2291.9829	99.7349
2292.9473	99.7421
2293.9114	99.738
2294.8757	99.7263
2295.8398	99.7139
2296.8042	99.7071
2297.7683	99.7085
2298.7327	99.7165
2299.6968	99.7265
2300.6611	99.7337
2301.6252	99.7345
2302.5896	99.7283
2303.5537	99.7169
2304.5181	99.7037
2305.4822	99.6923
2306.4465	99.685
2307.4106	99.6819
2308.3750	99.681
2309.3391	99.6789
2310.3035	99.6723
2311.2676	99.6599
2312.2319	99.6428
2313.1960	99.6243
2314.1604	99.6089
2315.1245	99.6004
2316.0889	99.6007
2317.0530	99.6083
2318.0173	99.6184
2318.9814	99.6243
2319.9458	99.6196
2320.9099	99.6011
2321.8743	99.5705
2322.8384	99.5333
2323.8027	99.4961
2324.7668	99.4638
2325.7312	99.4386
2326.6953	99.4209
2327.6597	99.4107
2328.6238	99.4087
2329.5881	99.4149
2330.5522	99.4276
2331.5166	99.442
2332.4807	99.4524
2333.4451	99.4543
2334.4092	99.4468
2335.3735	99.4327
2336.3376	99.4158
2337.3020	99.3986
2338.2661	99.3809
2339.2305	99.3616
2340.1946	99.3411
2341.1589	99.3224
2342.1230	99.3101
2343.0874	99.3068
2344.0515	99.3106
2345.0159	99.3159
2345.9800	99.3172
2346.9443	99.3125
2347.9084	99.3034
2348.8728	99.2924
2349.8369	99.2821
2350.8013	99.2742
2351.7654	99.2706
2352.7297	99.2739
2353.6938	99.287
2354.6582	99.3107
2355.6223	99.341
2356.5867	99.3695
2357.5508	99.3876
2358.5151	99.3916
2359.4792	99.3853
2360.4436	99.3767
2361.4077	99.3722
2362.3721	99.3715
2363.3362	99.3684
2364.3005	99.3567
2365.2646	99.3364
2366.2290	99.3151
2367.1931	99.3036
2368.1575	99.3088
2369.1216	99.3294
2370.0859	99.3578
2371.0500	99.3852
2372.0144	99.4069
2372.9785	99.4243
2373.9429	99.4417
2374.9070	99.4625
2375.8713	99.4862
2376.8354	99.5087
2377.7998	99.5251
2378.7639	99.5328
2379.7283	99.5325
2380.6924	99.5275
2381.6567	99.522
2382.6208	99.5188
2383.5852	99.5189
2384.5493	99.5222
2385.5137	99.5276
2386.4778	99.5346
2387.4421	99.543
2388.4063	99.553
2389.3706	99.5647
2390.3347	99.5779
2391.2991	99.5916
2392.2632	99.6043
2393.2275	99.6141
2394.1917	99.6201
2395.1560	99.6222
2396.1201	99.6223
2397.0845	99.6225
2398.0486	99.6249
2399.0129	99.6296
2399.9771	99.6353
2400.9414	99.64
2401.9055	99.6435
2402.8699	99.6471
2403.8340	99.6537
2404.7983	99.6649
2405.7625	99.6796
2406.7268	99.6944
2407.6909	99.7052
2408.6553	99.7103
2409.6194	99.7105
2410.5837	99.7084
2411.5479	99.7055
2412.5122	99.7014
2413.4763	99.6952
2414.4407	99.6876
2415.4048	99.6826
2416.3691	99.6856
2417.3333	99.6995
2418.2976	99.7218
2419.2617	99.7452
2420.2261	99.7614
2421.1902	99.7661
2422.1545	99.7612
2423.1187	99.7529
2424.0830	99.7467
2425.0471	99.7449
2426.0115	99.7457
2426.9756	99.7468
2427.9399	99.7476
2428.9041	99.75
2429.8684	99.7562
2430.8325	99.7664
2431.7969	99.778
2432.7610	99.7874
2433.7253	99.7924
2434.6895	99.7935
2435.6538	99.7935
2436.6179	99.7951
2437.5823	99.7991
2438.5464	99.8036
2439.5107	99.8053
2440.4749	99.8013
2441.4392	99.7907
2442.4033	99.7758
2443.3677	99.7613
2444.3318	99.7524
2445.2961	99.7533
2446.2603	99.7641
2447.2246	99.7813
2448.1887	99.799
2449.1531	99.8114
2450.1172	99.8158
2451.0815	99.8128
2452.0457	99.805
2453.0100	99.795
2453.9741	99.7843
2454.9385	99.7733
2455.9026	99.7634
2456.8669	99.7572
2457.8311	99.7581
2458.7954	99.7675
2459.7595	99.7836
2460.7239	99.8015
2461.6880	99.8157
2462.6523	99.8228
2463.6165	99.8229
2464.5808	99.8186
2465.5449	99.8125
2466.5093	99.8058
2467.4734	99.7982
2468.4377	99.79
2469.4019	99.7834
2470.3662	99.7819
2471.3303	99.7886
2472.2947	99.8032
2473.2588	99.8216
2474.2231	99.8371
2475.1873	99.8435
2476.1516	99.8387
2477.1157	99.8246
2478.0801	99.8064
2479.0442	99.7897
2480.0085	99.7778
2480.9727	99.7715
2481.9370	99.7694
2482.9011	99.7699
2483.8655	99.7718
2484.8296	99.7747
2485.7939	99.778
2486.7581	99.7806
2487.7224	99.7804
2488.6865	99.7755
2489.6509	99.7646
2490.6150	99.7488
2491.5793	99.7313
2492.5435	99.7161
2493.5078	99.707
2494.4719	99.7052
2495.4363	99.7087
2496.4004	99.7132
2497.3647	99.7142
2498.3289	99.7096
2499.2932	99.7012
2500.2573	99.6937
2501.2217	99.6927
2502.1858	99.7006
2503.1501	99.715
2504.1143	99.7296
2505.0786	99.737
2506.0427	99.7329
2507.0071	99.7181
2507.9712	99.698
2508.9355	99.6792
2509.8997	99.6672
2510.8640	99.664
2511.8281	99.6694
2512.7925	99.6816
2513.7566	99.6984
2514.7209	99.7165
2515.6851	99.7313
2516.6494	99.7378
2517.6135	99.7326
2518.5779	99.7164
2519.5420	99.6953
2520.5063	99.678
2521.4705	99.6726
2522.4348	99.6824
2523.3989	99.7046
2524.3633	99.7318
2525.3274	99.756
2526.2917	99.7721
2527.2559	99.7796
2528.2202	99.7816
2529.1843	99.7816
2530.1487	99.7815
2531.1128	99.7807
2532.0771	99.7772
2533.0413	99.77
2534.0056	99.7605
2534.9697	99.7524
2535.9341	99.7494
2536.8982	99.7532
2537.8625	99.7622
2538.8267	99.7729
2539.7910	99.7817
2540.7551	99.7868
2541.7195	99.788
2542.6836	99.7859
2543.6479	99.7803
2544.6121	99.7714
2545.5764	99.7608
2546.5405	99.7521
2547.5049	99.75
2548.4690	99.7573
2549.4333	99.7725
2550.3975	99.7901
2551.3618	99.8035
2552.3259	99.8079
2553.2903	99.803
2554.2544	99.792
2555.2188	99.779
2556.1829	99.7671
2557.1472	99.7576
2558.1113	99.751
2559.0757	99.7477
2560.0398	99.7477
2561.0042	99.75
2561.9683	99.7514
2562.9326	99.7481
2563.8967	99.737
2564.8611	99.7176
2565.8252	99.6923
2566.7896	99.6656
2567.7537	99.6417
2568.7180	99.6228
2569.6821	99.6088
2570.6465	99.5977
2571.6106	99.587
2572.5750	99.5757
2573.5391	99.5649
2574.5034	99.558
2575.4675	99.5591
2576.4319	99.5705
2577.3960	99.5912
2578.3604	99.6164
2579.3245	99.6396
2580.2888	99.6558
2581.2529	99.6639
2582.2173	99.666
2583.1814	99.6665
2584.1458	99.6686
2585.1099	99.673
2586.0742	99.6782
2587.0383	99.6818
2588.0027	99.682
2588.9668	99.6784
2589.9312	99.6709
2590.8953	99.6598
2591.8596	99.6451
2592.8237	99.6278
2593.7881	99.6099
2594.7522	99.5948
2595.7166	99.5863
2596.6807	99.5872
2597.6450	99.5981
2598.6091	99.6173
2599.5735	99.6409
2600.5376	99.6638
2601.5020	99.6811
2602.4661	99.6897
2603.4304	99.6895
2604.3945	99.6836
2605.3589	99.6771
2606.3230	99.6744
2607.2874	99.6769
2608.2515	99.6834
2609.2158	99.6911
2610.1799	99.698
2611.1443	99.7038
2612.1084	99.7087
2613.0728	99.7116
2614.0369	99.7097
2615.0012	99.6999
2615.9653	99.682
2616.9297	99.6598
2617.8938	99.6394
2618.8582	99.6255
2619.8223	99.6183
2620.7866	99.6144
2621.7507	99.6092
2622.7151	99.6015
2623.6792	99.594
2624.6436	99.5917
2625.6077	99.5981
2626.5720	99.6129
2627.5361	99.6325
2628.5005	99.6528
2629.4646	99.6705
2630.4290	99.6845
2631.3931	99.6944
2632.3574	99.7001
2633.3215	99.7019
2634.2859	99.7008
2635.2500	99.6993
2636.2144	99.6995
2637.1785	99.7021
2638.1428	99.7058
2639.1069	99.7079
2640.0713	99.7066
2641.0354	99.7022
2641.9998	99.6967
2642.9639	99.6923
2643.9282	99.6899
2644.8923	99.6883
2645.8567	99.6857
2646.8208	99.6807
2647.7852	99.6739
2648.7493	99.6669
2649.7136	99.662
2650.6777	99.6607
2651.6421	99.6635
2652.6062	99.6695
2653.5706	99.6768
2654.5347	99.6828
2655.4990	99.685
2656.4631	99.6816
2657.4275	99.6733
2658.3916	99.6626
2659.3560	99.6537
2660.3201	99.6496
2661.2844	99.651
2662.2485	99.6554
2663.2129	99.6586
2664.1770	99.6568
2665.1414	99.6487
2666.1055	99.636
2667.0698	99.6219
2668.0339	99.6097
2668.9983	99.601
2669.9624	99.5956
2670.9268	99.5921
2671.8909	99.5886
2672.8552	99.5827
2673.8193	99.5725
2674.7837	99.5563
2675.7478	99.5339
2676.7122	99.5067
2677.6763	99.4783
2678.6406	99.4536
2679.6047	99.437
2680.5691	99.4312
2681.5332	99.4356
2682.4976	99.4469
2683.4617	99.4596
2684.4260	99.4687
2685.3901	99.4714
2686.3545	99.4681
2687.3186	99.4626
2688.2830	99.4596
2689.2471	99.4626
2690.2114	99.4725
2691.1755	99.4879
2692.1399	99.5065
2693.1040	99.527
2694.0684	99.5491
2695.0325	99.5732
2695.9968	99.5984
2696.9609	99.6224
2697.9253	99.6421
2698.8894	99.6553
2699.8538	99.6619
2700.8179	99.6636
2701.7822	99.663
2702.7463	99.6622
2703.7107	99.6625
2704.6748	99.6641
2705.6392	99.6671
2706.6033	99.6711
2707.5676	99.6754
2708.5317	99.6791
2709.4961	99.6817
2710.4602	99.6836
2711.4246	99.6859
2712.3887	99.6895
2713.3530	99.6942
2714.3171	99.6985
2715.2815	99.7008
2716.2456	99.7016
2717.2100	99.703
2718.1741	99.7079
2719.1384	99.7172
2720.1025	99.728
2721.0669	99.735
2722.0310	99.7333
2722.9954	99.7216
2723.9595	99.7031
2724.9238	99.6838
2725.8879	99.6686
2726.8523	99.6598
2727.8164	99.6561
2728.7808	99.6551
2729.7449	99.6555
2730.7092	99.6575
2731.6733	99.6625
2732.6377	99.6704
2733.6018	99.6793
2734.5662	99.6858
2735.5303	99.6869
2736.4946	99.6818
2737.4587	99.6724
2738.4231	99.6619
2739.3872	99.6535
2740.3516	99.6492
2741.3157	99.6488
2742.2800	99.6515
2743.2441	99.6563
2744.2085	99.6624
2745.1726	99.669
2746.1370	99.6747
2747.1011	99.6773
2748.0654	99.6744
2749.0295	99.6651
2749.9939	99.6505
2750.9580	99.6337
2751.9224	99.6186
2752.8865	99.6081
2753.8508	99.6033
2754.8149	99.6029
2755.7793	99.6046
2756.7434	99.6065
2757.7078	99.6069
2758.6719	99.6051
2759.6362	99.6002
2760.6003	99.5914
2761.5647	99.579
2762.5288	99.5644
2763.4932	99.5502
2764.4573	99.5384
2765.4216	99.529
2766.3857	99.519
2767.3501	99.5037
2768.3142	99.4795
2769.2786	99.447
2770.2427	99.4116
2771.2070	99.3826
2772.1711	99.3689
2773.1355	99.3749
2774.0996	99.3989
2775.0640	99.4334
2776.0281	99.4684
2776.9924	99.4957
2777.9565	99.5115
2778.9209	99.5167
2779.8850	99.5151
2780.8494	99.5108
2781.8135	99.5064
2782.7778	99.5019
2783.7419	99.4967
2784.7063	99.4907
2785.6704	99.4858
2786.6348	99.4852
2787.5989	99.4925
2788.5632	99.5097
2789.5273	99.5361
2790.4917	99.5677
2791.4558	99.5988
2792.4202	99.6235
2793.3843	99.638
2794.3486	99.6414
2795.3127	99.6363
2796.2771	99.6268
2797.2412	99.6174
2798.2056	99.6107
2799.1697	99.6074
2800.1340	99.6063
2801.0981	99.6056
2802.0625	99.6039
2803.0266	99.6009
2803.9910	99.5977
2804.9551	99.5962
2805.9194	99.5985
2806.8835	99.6054
2807.8479	99.6162
2808.8120	99.6282
2809.7764	99.6387
2810.7405	99.6459
2811.7048	99.6503
2812.6689	99.6542
2813.6333	99.6597
2814.5974	99.6666
2815.5618	99.6726
2816.5259	99.6741
2817.4902	99.6693
2818.4543	99.6599
2819.4187	99.6502
2820.3828	99.6449
2821.3472	99.6468
2822.3113	99.6553
2823.2756	99.6671
2824.2397	99.6783
2825.2041	99.6859
2826.1682	99.6887
2827.1326	99.6873
2828.0967	99.6832
2829.0610	99.678
2830.0251	99.6736
2830.9895	99.6709
2831.9536	99.67
2832.9180	99.6706
2833.8821	99.6722
2834.8464	99.6747
2835.8105	99.6788
2836.7749	99.6847
2837.7390	99.6921
2838.7034	99.7002
2839.6675	99.7073
2840.6318	99.7124
2841.5959	99.7146
2842.5603	99.7134
2843.5244	99.7087
2844.4888	99.7006
2845.4529	99.6909
2846.4172	99.6821
2847.3813	99.6777
2848.3457	99.6797
2849.3098	99.6879
2850.2742	99.7
2851.2383	99.7126
2852.2026	99.7231
2853.1667	99.7303
2854.1311	99.7343
2855.0952	99.7353
2856.0596	99.7331
2857.0237	99.7276
2857.9880	99.719
2858.9521	99.7089
2859.9165	99.6995
2860.8806	99.6928
2861.8450	99.6896
2862.8091	99.6892
2863.7734	99.69
2864.7375	99.6906
2865.7019	99.6903
2866.6660	99.6895
2867.6304	99.6893
2868.5945	99.6906
2869.5588	99.6932
2870.5229	99.6954
2871.4873	99.6949
2872.4514	99.6895
2873.4158	99.6788
2874.3799	99.6646
2875.3442	99.6504
2876.3083	99.64
2877.2727	99.6356
2878.2368	99.6369
2879.2012	99.6419
2880.1653	99.6477
2881.1296	99.6522
2882.0938	99.6551
2883.0581	99.6569
2884.0222	99.6587
2884.9866	99.6608
2885.9507	99.6626
2886.9150	99.6626
2887.8792	99.6596
2888.8435	99.653
2889.8076	99.6432
2890.7720	99.6318
2891.7361	99.6212
2892.7004	99.6146
2893.6646	99.6149
2894.6289	99.6234
2895.5930	99.638
2896.5574	99.6533
2897.5215	99.6626
2898.4858	99.6614
2899.4500	99.65
2900.4143	99.6335
2901.3784	99.6192
2902.3428	99.6118
2903.3069	99.6104
2904.2712	99.61
2905.2354	99.6046
2906.1997	99.5922
2907.1638	99.5757
2908.1282	99.5613
2909.0923	99.5547
2910.0566	99.5577
2911.0208	99.5678
2911.9851	99.5806
2912.9492	99.5918
2913.9136	99.5993
2914.8777	99.6022
2915.8420	99.6012
2916.8062	99.5975
2917.7705	99.5932
2918.7346	99.5915
2919.6990	99.5952
2920.6631	99.6063
2921.6274	99.6238
2922.5916	99.6441
2923.5559	99.6623
2924.5200	99.6734
2925.4844	99.6749
2926.4485	99.6673
2927.4128	99.6532
2928.3770	99.6355
2929.3413	99.6165
2930.3054	99.5973
2931.2698	99.5784
2932.2339	99.5611
2933.1982	99.548
2934.1624	99.5426
2935.1267	99.5472
2936.0908	99.5613
2937.0552	99.5815
2938.0193	99.6026
2938.9836	99.6196
2939.9478	99.63
2940.9121	99.634
2941.8762	99.6338
2942.8406	99.6317
2943.8047	99.629
2944.7690	99.6255
2945.7332	99.6205
2946.6975	99.6134
2947.6616	99.6048
2948.6260	99.5958
2949.5901	99.5889
2950.5544	99.5864
2951.5186	99.5901
2952.4829	99.6003
2953.4470	99.6148
2954.4114	99.6292
2955.3755	99.6381
2956.3398	99.637
2957.3040	99.6253
2958.2683	99.6063
2959.2324	99.5862
2960.1968	99.5712
2961.1609	99.5647
2962.1252	99.5655
2963.0894	99.5694
2964.0537	99.5707
2965.0178	99.5651
2965.9822	99.5505
2966.9463	99.5274
2967.9106	99.4983
2968.8748	99.4668
2969.8391	99.4377
2970.8032	99.4151
2971.7676	99.4018
2972.7317	99.3977
2973.6960	99.3998
2974.6602	99.4041
2975.6245	99.4067
2976.5886	99.4062
2977.5530	99.4028
2978.5171	99.3979
2979.4814	99.3927
2980.4456	99.3876
2981.4099	99.3833
2982.3740	99.3804
2983.3384	99.38
2984.3025	99.3827
2985.2668	99.3874
2986.2310	99.391
2987.1953	99.3895
2988.1594	99.3794
2989.1238	99.3593
2990.0879	99.331
2991.0522	99.2985
2992.0164	99.2672
2992.9807	99.2415
2993.9448	99.2233
2994.9092	99.2119
2995.8733	99.204
2996.8376	99.1959
2997.8018	99.1842
2998.7661	99.1667
2999.7302	99.1424
3000.6946	99.1118
3001.6587	99.0776
3002.6230	99.0449
3003.5872	99.0208
