TITLE	
DATA TYPE	INFRARED SPECTRUM
ORIGIN	JASCO
OWNER	
DATE	25/10/20
TIME	15:36:44
SPECTROMETER/DATA SYSTEM	
LOCALE	1033
RESOLUTION	
DELTAX	0.964233
XUNITS	1/CM
YUNITS	TRANSMITTANCE
FIRSTX	  649.8934
LASTX	 4000.6047
NPOINTS	    3476
FIRSTY	    85.36781
MAXY	    99.37236
MINY	    67.77869
XYDATA
649.8934	85.3678
650.8576	85.4158
651.8218	85.5055
652.7861	85.5663
653.7503	85.5605
654.7145	85.502
655.6788	85.446
656.6430	85.4543
657.6072	85.5605
658.5715	85.7527
659.5357	85.9813
660.4999	86.1861
661.4642	86.3298
662.4284	86.4151
663.3926	86.474
664.3569	86.5422
665.3211	86.6396
666.2853	86.76
667.2496	86.8705
668.2138	86.9329
669.1780	86.9458
670.1423	86.9493
671.1065	86.9802
672.0707	87.0432
673.0350	87.117
673.9992	87.1688
674.9634	87.1711
675.9277	87.1182
676.8919	87.0334
677.8561	86.9592
678.8204	86.9352
679.7846	86.981
680.7488	87.0893
681.7131	87.2279
682.6773	87.3517
683.6415	87.418
684.6058	87.4027
685.5700	87.3083
686.5342	87.1615
687.4985	86.9997
688.4627	86.8539
689.4269	86.7384
690.3912	86.6506
691.3554	86.5812
692.3196	86.5234
693.2839	86.475
694.2481	86.4328
695.2123	86.3873
696.1766	86.3248
697.1408	86.2361
698.1050	86.1246
699.0693	86.0071
700.0335	85.9042
700.9977	85.8292
701.9620	85.7831
702.9262	85.7581
703.8904	85.7437
704.8547	85.7305
705.8189	85.709
706.7831	85.6691
707.7474	85.6054
708.7116	85.5265
709.6758	85.4613
710.6401	85.4516
711.6043	85.5314
712.5685	85.7053
713.5328	85.9389
714.4970	86.172
715.4612	86.3483
716.4255	86.443
717.3897	86.4726
718.3539	86.483
719.3182	86.5252
720.2824	86.6316
721.2466	86.8058
722.2109	87.0283
723.1751	87.2727
724.1393	87.5218
725.1036	87.7747
726.0678	88.0417
727.0320	88.3337
727.9963	88.6517
728.9605	88.9838
729.9247	89.3103
730.8890	89.6148
731.8532	89.892
732.8174	90.1466
733.7817	90.3837
734.7459	90.5996
735.7101	90.7793
736.6744	90.9064
737.6386	90.9769
738.6028	91.007
739.5671	91.0262
740.5313	91.0613
741.4955	91.1206
742.4598	91.1914
743.4240	91.2517
744.3882	91.2879
745.3525	91.3036
746.3167	91.3168
747.2809	91.3461
748.2452	91.3977
749.2094	91.462
750.1736	91.5202
751.1379	91.555
752.1021	91.5584
753.0663	91.5341
754.0306	91.4945
754.9948	91.456
755.9590	91.434
756.9233	91.4362
757.8875	91.4583
758.8517	91.4824
759.8160	91.4835
760.7802	91.442
761.7444	91.3559
762.7087	91.2445
763.6729	91.1395
764.6371	91.0686
765.6014	91.0406
766.5656	91.0416
767.5298	91.0441
768.4941	91.0227
769.4583	90.9657
770.4225	90.877
771.3868	90.7673
772.3510	90.645
773.3152	90.5099
774.2795	90.3556
775.2437	90.1742
776.2079	89.959
777.1722	89.7041
778.1364	89.4008
779.1006	89.0372
780.0649	88.5991
781.0291	88.0745
781.9933	87.4575
782.9576	86.7537
783.9218	85.9884
784.8860	85.2156
785.8503	84.5231
786.8145	84.0221
787.7787	83.8182
788.7430	83.9711
789.7072	84.4612
790.6714	85.1821
791.6357	85.9679
792.5999	86.6461
793.5641	87.0919
794.5284	87.261
795.4926	87.1891
796.4568	86.967
797.4211	86.7081
798.3853	86.5223
799.3495	86.4994
800.3138	86.698
801.2780	87.135
802.2422	87.7811
803.2065	88.5654
804.1707	89.3948
805.1349	90.1802
806.0992	90.8599
807.0634	91.4098
808.0276	91.8371
808.9919	92.1649
809.9561	92.4174
810.9203	92.6115
811.8846	92.7576
812.8488	92.8625
813.8130	92.9337
814.7773	92.9801
815.7415	93.0114
816.7057	93.0348
817.6700	93.0517
818.6342	93.0568
819.5984	93.0393
820.5627	92.9898
821.5269	92.908
822.4911	92.8056
823.4554	92.7029
824.4196	92.6173
825.3839	92.5541
826.3481	92.503
827.3123	92.4463
828.2766	92.3705
829.2408	92.2747
830.2050	92.1699
831.1693	92.0701
832.1335	91.9833
833.0977	91.9078
834.0620	91.8367
835.0262	91.7643
835.9904	91.6906
836.9547	91.6198
837.9189	91.5565
838.8831	91.5012
839.8474	91.4503
840.8116	91.3983
841.7758	91.3407
842.7401	91.2762
843.7043	91.2065
844.6685	91.1345
845.6328	91.0621
846.5970	90.9879
847.5612	90.9072
848.5255	90.8148
849.4897	90.7086
850.4539	90.593
851.4182	90.4788
852.3824	90.3776
853.3466	90.2948
854.3109	90.224
855.2751	90.1495
856.2393	90.0537
857.2036	89.9274
858.1678	89.7763
859.1320	89.6177
860.0963	89.4723
861.0605	89.3529
862.0247	89.2598
862.9890	89.1832
863.9532	89.1119
864.9174	89.0414
865.8817	88.9761
866.8459	88.9241
867.8101	88.8891
868.7744	88.8657
869.7386	88.8432
870.7028	88.8144
871.6671	88.7844
872.6313	88.7712
873.5955	88.797
874.5598	88.8755
875.5240	89.003
876.4882	89.16
877.4525	89.3201
878.4167	89.4618
879.3809	89.5751
880.3452	89.6598
881.3094	89.7194
882.2736	89.753
883.2379	89.7498
884.2021	89.6876
885.1663	89.5361
886.1306	89.266
887.0948	88.8625
888.0590	88.3397
889.0233	87.7474
889.9875	87.1648
890.9517	86.68
891.9160	86.3637
892.8802	86.2495
893.8444	86.3302
894.8087	86.5686
895.7729	86.9169
896.7371	87.3325
897.7014	87.7849
898.6656	88.2527
899.6298	88.7176
900.5941	89.1583
901.5583	89.5506
902.5225	89.8702
903.4868	90.0975
904.4510	90.2206
905.4152	90.2352
906.3795	90.1419
907.3438	89.9418
908.3080	89.6364
909.2722	89.2323
910.2365	88.7513
911.2007	88.2384
912.1649	87.7618
913.1292	87.3991
914.0934	87.2127
915.0576	87.2265
916.0219	87.4151
916.9861	87.7118
917.9503	88.0342
918.9146	88.3129
919.8788	88.5104
920.8430	88.6248
921.8073	88.679
922.7715	88.7049
923.7357	88.7325
924.7000	88.7834
925.6642	88.8705
926.6284	88.9976
927.5927	89.1584
928.5569	89.3369
929.5211	89.5115
930.4854	89.6624
931.4496	89.7798
932.4138	89.8667
933.3781	89.9361
934.3423	90.0015
935.3065	90.0684
936.2708	90.131
937.2350	90.1761
938.1992	90.1911
939.1635	90.1722
940.1277	90.1262
941.0919	90.0662
942.0562	90.0037
943.0204	89.9428
943.9846	89.8798
944.9489	89.8073
945.9131	89.7218
946.8773	89.626
947.8416	89.5268
948.8058	89.428
949.7700	89.3249
950.7343	89.2045
951.6985	89.0521
952.6627	88.861
953.6270	88.6379
954.5912	88.3995
955.5554	88.1631
956.5197	87.9352
957.4839	87.7067
958.4481	87.4562
959.4124	87.1604
960.3766	86.804
961.3408	86.3871
962.3051	85.9237
963.2693	85.4373
964.2335	84.9526
965.1978	84.4891
966.1620	84.0553
967.1262	83.6475
968.0905	83.2503
969.0547	82.842
970.0189	82.4011
970.9832	81.9126
971.9474	81.3716
972.9116	80.7833
973.8759	80.1623
974.8401	79.5318
975.8043	78.9246
976.7686	78.3825
977.7328	77.9524
978.6970	77.6777
979.6613	77.5889
980.6255	77.6954
981.5897	77.9828
982.5540	78.4166
983.5182	78.9485
984.4824	79.5247
985.4467	80.092
986.4109	80.6042
987.3751	81.0261
988.3394	81.3373
989.3036	81.5335
990.2678	81.6232
991.2321	81.6216
992.1963	81.5433
993.1605	81.3974
994.1248	81.1877
995.0890	80.9163
996.0532	80.5882
997.0175	80.2133
997.9817	79.8044
998.9459	79.3722
999.9102	78.9216
1000.8744	78.4505
1001.8386	77.9536
1002.8029	77.4276
1003.7671	76.8752
1004.7313	76.3049
1005.6956	75.7262
1006.6598	75.1443
1007.6240	74.557
1008.5883	73.9556
1009.5525	73.3307
1010.5167	72.6767
1011.4810	71.9951
1012.4452	71.2931
1013.4094	70.5819
1014.3737	69.8774
1015.3379	69.2045
1016.3021	68.6023
1017.2664	68.1246
1018.2306	67.8328
1019.1948	67.7787
1020.1591	67.9866
1021.1233	68.4412
1022.0875	69.0892
1023.0518	69.8534
1024.0160	70.6528
1024.9802	71.4202
1025.9445	72.1111
1026.9087	72.7032
1027.8729	73.193
1028.8372	73.5915
1029.8014	73.9212
1030.7656	74.212
1031.7299	74.4926
1032.6941	74.7804
1033.6583	75.0733
1034.6226	75.3511
1035.5868	75.5879
1036.5510	75.7707
1037.5153	75.9157
1038.4795	76.0712
1039.4437	76.3054
1040.4080	76.683
1041.3722	77.242
1042.3364	77.9815
1043.3007	78.8665
1044.2649	79.843
1045.2291	80.8577
1046.1934	81.8708
1047.1576	82.8592
1048.1218	83.8104
1049.0861	84.7162
1050.0503	85.5681
1051.0145	86.3587
1051.9788	87.0843
1052.9430	87.7471
1053.9072	88.3526
1054.8715	88.9048
1055.8357	89.4029
1056.7999	89.8412
1057.7642	90.2124
1058.7284	90.5116
1059.6926	90.7363
1060.6569	90.8834
1061.6211	90.945
1062.5853	90.9086
1063.5496	90.7647
1064.5138	90.519
1065.4780	90.203
1066.4423	89.8736
1067.4065	89.5994
1068.3707	89.4377
1069.3350	89.4129
1070.2992	89.5069
1071.2634	89.6679
1072.2277	89.8328
1073.1919	89.9535
1074.1561	90.0158
1075.1204	90.0416
1076.0846	90.0732
1077.0488	90.1476
1078.0131	90.2726
1078.9773	90.4161
1079.9415	90.5153
1080.9058	90.5037
1081.8700	90.343
1082.8342	90.0469
1083.7985	89.6837
1084.7627	89.3592
1085.7269	89.1842
1086.6912	89.243
1087.6554	89.5711
1088.6196	90.1506
1089.5839	90.92
1090.5481	91.794
1091.5123	92.6863
1092.4766	93.5272
1093.4408	94.2727
1094.4050	94.9045
1095.3693	95.4231
1096.3335	95.8393
1097.2977	96.1677
1098.2620	96.4234
1099.2262	96.6209
1100.1904	96.7734
1101.1547	96.8919
1102.1189	96.9848
1103.0831	97.0593
1104.0474	97.1227
1105.0116	97.1827
1105.9758	97.2449
1106.9401	97.3091
1107.9043	97.3688
1108.8685	97.4144
1109.8328	97.4389
1110.7970	97.4431
1111.7612	97.4352
1112.7255	97.4262
1113.6897	97.4235
1114.6539	97.4289
1115.6182	97.4398
1116.5824	97.4537
1117.5466	97.4699
1118.5109	97.489
1119.4751	97.5101
1120.4393	97.5283
1121.4036	97.536
1122.3678	97.5263
1123.3320	97.4968
1124.2963	97.4515
1125.2605	97.3995
1126.2247	97.3519
1127.1890	97.3173
1128.1532	97.2987
1129.1174	97.2924
1130.0817	97.2895
1131.0459	97.2802
1132.0101	97.2587
1132.9744	97.2248
1133.9386	97.1839
1134.9028	97.142
1135.8671	97.1016
1136.8313	97.06
1137.7955	97.0109
1138.7598	96.9502
1139.7240	96.8793
1140.6882	96.8056
1141.6525	96.7377
1142.6167	96.6795
1143.5809	96.6251
1144.5452	96.56
1145.5094	96.466
1146.4736	96.3282
1147.4379	96.1378
1148.4021	95.8914
1149.3663	95.5869
1150.3306	95.2223
1151.2948	94.7997
1152.2590	94.3337
1153.2233	93.8589
1154.1875	93.4291
1155.1517	93.1072
1156.1160	92.9472
1157.0802	92.977
1158.0444	93.1894
1159.0087	93.5452
1159.9729	93.9857
1160.9371	94.4503
1161.9014	94.8904
1162.8656	95.2763
1163.8298	95.5968
1164.7941	95.853
1165.7583	96.0517
1166.7225	96.2007
1167.6868	96.3075
1168.6510	96.3798
1169.6152	96.4271
1170.5795	96.4603
1171.5437	96.4888
1172.5079	96.5181
1173.4722	96.5477
1174.4364	96.5725
1175.4006	96.5864
1176.3649	96.5857
1177.3291	96.5705
1178.2933	96.5438
1179.2576	96.509
1180.2218	96.4679
1181.1860	96.4216
1182.1503	96.3708
1183.1145	96.3176
1184.0787	96.2641
1185.0430	96.2121
1186.0072	96.1614
1186.9714	96.1098
1187.9357	96.0542
1188.8999	95.9916
1189.8641	95.9193
1190.8284	95.8342
1191.7926	95.7331
1192.7568	95.6123
1193.7211	95.4688
1194.6853	95.3015
1195.6495	95.1121
1196.6138	94.9036
1197.5780	94.6795
1198.5422	94.4413
1199.5065	94.1884
1200.4707	93.9186
1201.4349	93.6326
1202.3992	93.3371
1203.3634	93.0462
1204.3276	92.7796
1205.2919	92.5563
1206.2561	92.3892
1207.2203	92.2815
1208.1846	92.2285
1209.1488	92.2217
1210.1130	92.2523
1211.0773	92.3114
1212.0415	92.3886
1213.0057	92.4707
1213.9700	92.5436
1214.9342	92.5964
1215.8984	92.6259
1216.8627	92.6379
1217.8269	92.6458
1218.7911	92.6664
1219.7554	92.7168
1220.7196	92.8122
1221.6838	92.9637
1222.6481	93.1756
1223.6123	93.4426
1224.5765	93.7494
1225.5408	94.0735
1226.5050	94.391
1227.4692	94.6833
1228.4335	94.9403
1229.3977	95.1603
1230.3619	95.3463
1231.3262	95.5035
1232.2904	95.6368
1233.2546	95.7504
1234.2189	95.8474
1235.1831	95.9289
1236.1473	95.9948
1237.1116	96.0443
1238.0758	96.078
1239.0400	96.0995
1240.0043	96.1141
1240.9685	96.1269
1241.9327	96.1405
1242.8970	96.1539
1243.8612	96.1637
1244.8254	96.1669
1245.7897	96.1627
1246.7539	96.1531
1247.7181	96.1411
1248.6824	96.1284
1249.6466	96.1134
1250.6108	96.0905
1251.5751	96.0524
1252.5393	95.9934
1253.5035	95.9129
1254.4678	95.8172
1255.4320	95.7185
1256.3962	95.6312
1257.3605	95.5663
1258.3247	95.5276
1259.2889	95.5109
1260.2532	95.5064
1261.2174	95.5034
1262.1816	95.4942
1263.1459	95.4749
1264.1101	95.4442
1265.0743	95.401
1266.0386	95.3438
1267.0028	95.271
1267.9670	95.1823
1268.9313	95.079
1269.8955	94.9641
1270.8597	94.8394
1271.8240	94.7038
1272.7882	94.5528
1273.7524	94.3787
1274.7167	94.173
1275.6809	93.9291
1276.6451	93.643
1277.6094	93.3129
1278.5736	92.9377
1279.5378	92.516
1280.5021	92.0475
1281.4663	91.5374
1282.4305	91.0019
1283.3948	90.4715
1284.3590	89.9907
1285.3232	89.6112
1286.2875	89.3811
1287.2517	89.3331
1288.2159	89.4741
1289.1802	89.783
1290.1444	90.2154
1291.1086	90.7153
1292.0729	91.228
1293.0371	91.7082
1294.0013	92.1233
1294.9656	92.4516
1295.9298	92.6802
1296.8940	92.8031
1297.8583	92.8212
1298.8225	92.7441
1299.7867	92.5898
1300.7510	92.3832
1301.7152	92.1516
1302.6794	91.92
1303.6437	91.71
1304.6079	91.5404
1305.5721	91.4312
1306.5364	91.4044
1307.5006	91.481
1308.4648	91.6746
1309.4291	91.9844
1310.3933	92.3918
1311.3575	92.8606
1312.3218	93.3444
1313.2860	93.7973
1314.2502	94.1858
1315.2145	94.495
1316.1787	94.7268
1317.1429	94.8925
1318.1072	95.0059
1319.0714	95.0781
1320.0356	95.1173
1320.9999	95.1289
1321.9641	95.1166
1322.9283	95.0819
1323.8926	95.0239
1324.8568	94.9407
1325.8210	94.8304
1326.7853	94.6936
1327.7495	94.533
1328.7137	94.3522
1329.6780	94.1533
1330.6422	93.9373
1331.6064	93.7048
1332.5707	93.4597
1333.5349	93.2106
1334.4991	92.9711
1335.4634	92.7578
1336.4276	92.5885
1337.3918	92.4794
1338.3561	92.4394
1339.3203	92.465
1340.2845	92.5391
1341.2488	92.6395
1342.2130	92.7488
1343.1772	92.8609
1344.1415	92.9786
1345.1057	93.1097
1346.0699	93.2622
1347.0342	93.4404
1347.9984	93.6426
1348.9626	93.8609
1349.9269	94.0838
1350.8911	94.299
1351.8553	94.496
1352.8196	94.6667
1353.7838	94.8057
1354.7480	94.9095
1355.7123	94.9779
1356.6765	95.0141
1357.6407	95.0237
1358.6050	95.0118
1359.5692	94.9815
1360.5334	94.9333
1361.4977	94.8671
1362.4619	94.7834
1363.4261	94.6818
1364.3904	94.5592
1365.3546	94.4104
1366.3188	94.2349
1367.2831	94.0449
1368.2473	93.87
1369.2115	93.7523
1370.1758	93.733
1371.1400	93.8376
1372.1042	94.0645
1373.0685	94.381
1374.0327	94.7257
1374.9969	95.0295
1375.9612	95.246
1376.9254	95.3679
1377.8896	95.4154
1378.8539	95.4138
1379.8181	95.3794
1380.7823	95.3188
1381.7466	95.2335
1382.7108	95.1238
1383.6750	94.987
1384.6393	94.8145
1385.6035	94.5922
1386.5677	94.3101
1387.5320	93.9746
1388.4962	93.6089
1389.4604	93.2359
1390.4247	92.8644
1391.3889	92.4905
1392.3531	92.1101
1393.3174	91.7326
1394.2816	91.3888
1395.2458	91.1253
1396.2101	90.9859
1397.1743	90.9936
1398.1385	91.1451
1399.1028	91.4177
1400.0670	91.7809
1401.0313	92.2072
1401.9955	92.679
1402.9597	93.1855
1403.9240	93.7112
1404.8882	94.2256
1405.8524	94.6868
1406.8167	95.0607
1407.7809	95.3392
1408.7451	95.5376
1409.7094	95.6791
1410.6736	95.7811
1411.6378	95.8517
1412.6021	95.8942
1413.5663	95.9126
1414.5305	95.9128
1415.4948	95.8998
1416.4590	95.8755
1417.4232	95.8406
1418.3875	95.798
1419.3517	95.7547
1420.3159	95.7168
1421.2802	95.6841
1422.2444	95.6508
1423.2086	95.6107
1424.1729	95.5611
1425.1371	95.5022
1426.1013	95.4342
1427.0656	95.3525
1428.0298	95.2483
1428.9940	95.1143
1429.9583	94.9535
1430.9225	94.7796
1431.8867	94.6066
1432.8510	94.4364
1433.8152	94.2538
1434.7794	94.034
1435.7437	93.7581
1436.7079	93.4341
1437.6721	93.0949
1438.6364	92.7675
1439.6006	92.4518
1440.5648	92.1333
1441.5291	91.8055
1442.4933	91.4825
1443.4575	91.1986
1444.4218	90.9984
1445.3860	90.9211
1446.3502	90.9868
1447.3145	91.185
1448.2787	91.4707
1449.2429	91.7759
1450.2072	92.0386
1451.1714	92.2286
1452.1356	92.3475
1453.0999	92.4095
1454.0641	92.4186
1455.0283	92.3471
1455.9926	92.1337
1456.9568	91.7439
1457.9210	91.2669
1458.8853	90.8566
1459.8495	90.5856
1460.8137	90.4451
1461.7780	90.4119
1462.7422	90.4746
1463.7064	90.6234
1464.6707	90.8281
1465.6349	91.0362
1466.5991	91.2078
1467.5634	91.3458
1468.5276	91.4897
1469.4918	91.6968
1470.4561	92.0295
1471.4203	92.5327
1472.3845	93.1841
1473.3488	93.8628
1474.3130	94.4224
1475.2772	94.8028
1476.2415	95.0319
1477.2057	95.1575
1478.1699	95.2101
1479.1342	95.2035
1480.0984	95.146
1481.0626	95.0493
1482.0269	94.9291
1482.9911	94.8013
1483.9553	94.6771
1484.9196	94.5612
1485.8838	94.4539
1486.8480	94.3553
1487.8123	94.2684
1488.7765	94.2006
1489.7407	94.1581
1490.7050	94.14
1491.6692	94.1395
1492.6334	94.1512
1493.5977	94.1726
1494.5619	94.2039
1495.5261	94.2458
1496.4904	94.2977
1497.4546	94.3571
1498.4188	94.4195
1499.3831	94.4798
1500.3473	94.5343
1501.3115	94.5809
1502.2758	94.6182
1503.2400	94.6471
1504.2042	94.672
1505.1685	94.7044
1506.1327	94.7633
1507.0969	94.8573
1508.0612	94.9633
1509.0254	95.0518
1509.9896	95.1159
1510.9539	95.1631
1511.9181	95.2017
1512.8823	95.2374
1513.8466	95.2742
1514.8108	95.3142
1515.7750	95.3574
1516.7393	95.402
1517.7035	95.4461
1518.6677	95.4894
1519.6320	95.5329
1520.5962	95.5767
1521.5604	95.6176
1522.5247	95.6519
1523.4889	95.679
1524.4531	95.7036
1525.4174	95.7315
1526.3816	95.7652
1527.3458	95.8014
1528.3101	95.8334
1529.2743	95.8554
1530.2385	95.8652
1531.2028	95.8646
1532.1670	95.8578
1533.1312	95.8501
1534.0955	95.8442
1535.0597	95.8394
1536.0239	95.8327
1536.9882	95.8219
1537.9524	95.8051
1538.9166	95.7813
1539.8809	95.7512
1540.8451	95.7203
1541.8093	95.6958
1542.7736	95.6794
1543.7378	95.6675
1544.7020	95.655
1545.6663	95.6374
1546.6305	95.6116
1547.5947	95.5763
1548.5590	95.5321
1549.5232	95.4795
1550.4874	95.4181
1551.4517	95.3466
1552.4159	95.2649
1553.3801	95.175
1554.3444	95.079
1555.3086	94.9752
1556.2728	94.8547
1557.2371	94.7037
1558.2013	94.5218
1559.1655	94.3454
1560.1298	94.211
1561.0940	94.1104
1562.0582	94.0179
1563.0225	93.9185
1563.9867	93.8102
1564.9509	93.6985
1565.9152	93.5903
1566.8794	93.4874
1567.8436	93.3821
1568.8079	93.2614
1569.7721	93.1195
1570.7363	92.9645
1571.7006	92.8069
1572.6648	92.646
1573.6290	92.465
1574.5933	92.2364
1575.5575	91.9394
1576.5217	91.5867
1577.4860	91.2237
1578.4502	90.8855
1579.4144	90.5728
1580.3787	90.2716
1581.3429	89.978
1582.3071	89.707
1583.2714	89.4864
1584.2356	89.3423
1585.1998	89.289
1586.1641	89.3307
1587.1283	89.4705
1588.0925	89.7117
1589.0568	90.0507
1590.0210	90.4707
1590.9852	90.9444
1591.9495	91.4427
1592.9137	91.9402
1593.8779	92.4161
1594.8422	92.8527
1595.8064	93.2379
1596.7706	93.5684
1597.7349	93.8501
1598.6991	94.0951
1599.6633	94.3161
1600.6276	94.5232
1601.5918	94.7216
1602.5560	94.9121
1603.5203	95.0928
1604.4845	95.2612
1605.4487	95.4166
1606.4130	95.5608
1607.3772	95.6965
1608.3414	95.8245
1609.3057	95.9417
1610.2699	96.0428
1611.2341	96.1243
1612.1984	96.1871
1613.1626	96.2363
1614.1268	96.2796
1615.0911	96.3242
1616.0553	96.3731
1617.0195	96.4209
1617.9838	96.4583
1618.9480	96.4806
1619.9122	96.4896
1620.8765	96.4896
1621.8407	96.4854
1622.8049	96.4807
1623.7692	96.4777
1624.7334	96.4763
1625.6976	96.4749
1626.6619	96.4714
1627.6261	96.4652
1628.5903	96.4569
1629.5546	96.4483
1630.5188	96.4407
1631.4830	96.4346
1632.4473	96.4292
1633.4115	96.4227
1634.3757	96.4122
1635.3400	96.3963
1636.3042	96.3771
1637.2684	96.3596
1638.2327	96.3461
1639.1969	96.3353
1640.1611	96.3247
1641.1254	96.3123
1642.0896	96.2969
1643.0538	96.2783
1644.0181	96.2567
1644.9823	96.234
1645.9465	96.2138
1646.9108	96.1995
1647.8750	96.1914
1648.8392	96.1861
1649.8035	96.18
1650.7677	96.171
1651.7319	96.1583
1652.6962	96.1451
1653.6604	96.1377
1654.6246	96.1386
1655.5889	96.1434
1656.5531	96.1476
1657.5173	96.1488
1658.4816	96.1458
1659.4458	96.1373
1660.4100	96.1223
1661.3743	96.1021
1662.3385	96.0809
1663.3027	96.0636
1664.2670	96.0527
1665.2312	96.0473
1666.1954	96.0451
1667.1597	96.0444
1668.1239	96.0443
1669.0881	96.0446
1670.0524	96.0457
1671.0166	96.0477
1671.9808	96.05
